Timestamp,Local time,Counter,Interpolated,Contact Quality,AF3,T7,Pz,T8,AF4
1783984326.284,16:12:06.284,60,false,0.0,4302.436,4439.231,4223.077,4190.128,4307.308
1783984326.2918,16:12:06.291,61,false,0.0,4270.256,4402.949,4245.897,4196.538,4301.026
1783984326.2996,16:12:06.299,62,false,0.0,4230.513,4357.051,4254.615,4195.385,4295.897
1783984326.3074,16:12:06.307,63,false,0.0,4187.308,4309.872,4239.359,4207.692,4284.487
1783984326.3152,16:12:06.315,64,false,0.0,4172.436,4274.359,4240.641,4210.897,4250.0
1783984326.323,16:12:06.323,65,false,0.0,4199.615,4298.205,4271.282,4165.128,4165.0
1783984326.3308,16:12:06.330,66,false,0.0,4177.051,4321.538,4274.359,4159.359,4121.923
1783984326.3386,16:12:06.338,67,false,0.0,4101.282,4272.051,4239.487,4245.256,4218.333
1783984326.3465,16:12:06.346,68,false,0.0,4119.744,4250.385,4234.872,4297.564,4275.385
1783984326.3543,16:12:06.354,69,false,0.0,4212.179,4311.282,4268.59,4262.179,4154.744
1783984326.3621,16:12:06.362,70,false,0.0,4229.103,4343.205,4270.641,4246.795,4108.846
1783984326.3699,16:12:06.369,71,false,0.0,4207.308,4335.641,4230.897,4273.974,4258.333
1783984326.3778,16:12:06.377,72,false,0.0,4233.333,4369.872,4201.538,4271.154,4339.615
1783984326.3856,16:12:06.385,73,false,0.0,4277.308,4410.641,4203.333,4261.41,4290.897
1783984326.3935,16:12:06.393,74,false,0.0,4321.282,4422.436,4222.564,4281.538,4309.744
1783984326.4013,16:12:06.401,75,false,0.0,4341.154,4425.513,4233.333,4275.385,4406.41
1783984326.4092,16:12:06.409,76,false,0.0,4318.846,4396.282,4223.974,4237.051,4443.333
1783984326.417,16:12:06.417,77,false,0.0,4320.128,4368.077,4223.077,4219.744,4371.923
1783984326.4248,16:12:06.424,78,false,0.0,4321.154,4387.179,4235.0,4202.949,4291.667
1783984326.4326,16:12:06.432,79,false,0.0,4258.205,4365.0,4233.205,4176.667,4305.641
1783984326.4405,16:12:06.440,80,false,0.0,4227.564,4297.564,4238.718,4193.974,4314.487
1783984326.4483,16:12:06.448,81,false,0.0,4238.846,4288.333,4257.821,4235.256,4261.538
1783984326.4561,16:12:06.456,82,false,0.0,4183.077,4270.897,4245.385,4247.821,4277.949
1783984326.4639,16:12:06.463,83,false,0.0,4151.667,4220.0,4231.026,4242.179,4277.436
1783984326.4718,16:12:06.471,84,false,0.0,4203.462,4282.821,4260.897,4229.231,4143.974
1783984326.4796,16:12:06.479,85,false,0.0,4192.821,4372.821,4272.821,4235.0,4133.462
1783984326.4874,16:12:06.487,86,false,0.0,4162.308,4319.231,4240.128,4285.256,4299.872
1783984326.4952,16:12:06.495,87,false,0.0,4238.333,4285.256,4225.513,4301.41,4331.795
1783984326.5029,16:12:06.502,88,false,0.0,4302.692,4382.308,4227.564,4256.538,4254.615
1783984326.5107,16:12:06.510,89,false,0.0,4295.0,4433.974,4221.795,4248.333,4283.333
1783984326.5185,16:12:06.518,90,false,0.0,4314.744,4407.179,4234.615,4255.0,4338.974
1783984326.5263,16:12:06.526,91,false,0.0,4333.205,4406.41,4248.462,4210.769,4350.385
1783984326.534,16:12:06.534,92,false,0.0,4302.436,4398.974,4225.769,4205.385,4378.462
1783984326.5418,16:12:06.541,93,false,0.0,4281.282,4356.154,4198.462,4248.333,4386.923
1783984326.5497,16:12:06.549,94,false,0.0,4276.923,4328.077,4203.846,4225.385,4332.949
1783984326.5575,16:12:06.557,95,false,0.0,4261.538,4327.564,4230.641,4182.308,4259.231
1783984326.5652,16:12:06.565,96,false,0.0,4240.385,4331.667,4249.872,4198.718,4212.692
1783984326.573,16:12:06.573,97,false,0.0,4218.333,4306.795,4251.795,4206.41,4177.692
1783984326.5808,16:12:06.580,98,false,0.0,4202.308,4276.538,4258.077,4191.41,4116.026
1783984326.5886,16:12:06.588,99,false,0.0,4168.205,4294.872,4265.256,4219.872,4129.487
1783984326.5965,16:12:06.596,100,false,0.0,4128.333,4294.615,4249.359,4272.949,4272.692
1783984326.6043,16:12:06.604,101,false,0.0,4181.154,4246.026,4244.744,4298.718,4323.59
1783984326.6121,16:12:06.612,102,false,0.0,4278.718,4274.103,4263.59,4287.949,4240.769
1783984326.6199,16:12:06.619,103,false,0.0,4291.923,4360.769,4249.231,4257.179,4257.179
1783984326.6277,16:12:06.627,104,false,0.0,4308.333,4386.538,4224.872,4242.821,4318.846
1783984326.6355,16:12:06.635,105,false,0.0,4380.385,4400.385,4247.436,4253.462,4301.282
1783984326.6433,16:12:06.643,106,false,0.0,4380.256,4433.718,4261.538,4261.154,4344.744
1783984326.6511,16:12:06.651,107,false,0.0,4345.513,4427.436,4226.154,4255.513,4418.077
1783984326.6588,16:12:06.658,108,false,0.0,4360.385,4407.949,4194.359,4239.231,4397.821
1783984326.6666,16:12:06.666,109,false,0.0,4340.0,4389.103,4192.179,4216.41,4376.154
1783984326.6744,16:12:06.674,110,false,0.0,4293.333,4358.462,4209.872,4199.231,4332.564
1783984326.6822,16:12:06.682,111,false,0.0,4280.0,4355.513,4235.769,4189.103,4227.436
1783984326.6899,16:12:06.689,112,false,0.0,4243.974,4341.282,4249.872,4184.487,4203.974
1783984326.6977,16:12:06.697,113,false,0.0,4199.359,4292.051,4258.333,4189.487,4208.718
1783984326.7056,16:12:06.705,114,false,0.0,4170.256,4282.436,4257.821,4210.897,4176.538
1783984326.7134,16:12:06.713,115,false,0.0,4135.128,4276.41,4239.487,4248.333,4222.308
1783984326.7213,16:12:06.721,116,false,0.0,4183.718,4256.154,4253.974,4263.59,4195.769
1783984326.7291,16:12:06.729,117,false,0.0,4267.949,4312.436,4293.462,4241.795,4066.795
1783984326.7369,16:12:06.736,118,false,0.0,4219.359,4358.333,4273.077,4241.026,4185.128
1783984326.7447,16:12:06.744,119,false,0.0,4187.308,4327.821,4235.641,4261.154,4381.795
1783984326.7526,16:12:06.752,120,false,0.0,4303.846,4373.59,4255.897,4250.513,4282.308
1783984326.7604,16:12:06.760,121,false,0.0,4357.436,4454.103,4260.128,4248.59,4218.974
1783984326.7682,16:12:06.768,122,false,0.0,4302.564,4416.923,4215.128,4274.231,4386.923
1783984326.776,16:12:06.776,123,false,0.0,4294.744,4375.0,4193.974,4260.385,4425.256
1783984326.784,16:12:06.784,124,false,0.0,4306.795,4405.513,4201.282,4221.026,4332.821
1783984326.7918,16:12:06.791,125,false,0.0,4287.564,4410.0,4207.821,4209.359,4307.949
1783984326.7996,16:12:06.799,126,false,0.0,4262.436,4378.205,4222.436,4204.744,4255.256
1783984326.8074,16:12:06.807,127,false,0.0,4234.872,4338.462,4240.0,4195.641,4186.667
1783984326.8153,16:12:06.815,0,false,0.0,4225.0,4308.718,4252.179,4186.538,4193.718
1783984326.8231,16:12:06.823,1,false,0.0,4181.282,4309.744,4250.513,4176.026,4216.026
1783984326.8309,16:12:06.830,2,false,0.0,4098.718,4279.872,4236.667,4201.923,4223.846
1783984326.8387,16:12:06.838,3,false,0.0,4145.769,4252.308,4258.974,4250.0,4167.051
1783984326.8464,16:12:06.846,4,false,0.0,4245.128,4318.846,4302.436,4251.667,4085.256
1783984326.8543,16:12:06.854,5,false,0.0,4176.154,4344.615,4287.179,4234.615,4188.205
1783984326.8621,16:12:06.862,6,false,0.0,4127.051,4287.051,4250.256,4252.051,4334.615
1783984326.8699,16:12:06.869,7,false,0.0,4253.333,4342.692,4259.487,4265.769,4257.692
1783984326.8776,16:12:06.877,8,false,0.0,4308.718,4442.179,4254.103,4259.103,4216.154
1783984326.8854,16:12:06.885,9,false,0.0,4257.564,4403.462,4209.487,4271.41,4380.128
1783984326.8932,16:12:06.893,10,false,0.0,4279.872,4364.359,4196.026,4284.359,4428.846
1783984326.901,16:12:06.901,11,false,0.0,4302.308,4416.667,4211.026,4245.128,4317.821
1783984326.9087,16:12:06.908,12,false,0.0,4261.282,4431.026,4204.359,4197.436,4308.59
1783984326.9165,16:12:06.916,13,false,0.0,4249.487,4381.154,4188.462,4229.359,4376.026
1783984326.9243,16:12:06.924,14,false,0.0,4248.077,4321.026,4192.051,4277.051,4359.615
1783984326.9322,16:12:06.932,15,false,0.0,4216.41,4294.487,4215.897,4216.667,4261.538
1783984326.9399,16:12:06.939,16,false,0.0,4177.308,4321.154,4241.923,4139.872,4193.974
1783984326.9477,16:12:06.947,17,false,0.0,4130.256,4293.462,4252.051,4195.897,4233.59
1783984326.9555,16:12:06.955,18,false,0.0,4130.0,4202.179,4260.385,4286.41,4261.026
1783984326.9633,16:12:06.963,19,false,0.0,4181.923,4225.0,4278.846,4269.615,4172.949
1783984326.971,16:12:06.971,20,false,0.0,4163.462,4315.513,4281.538,4222.564,4137.564
1783984326.9788,16:12:06.978,21,false,0.0,4114.615,4298.205,4266.282,4254.615,4242.564
1783984326.9866,16:12:06.986,22,false,0.0,4178.205,4263.462,4261.41,4315.513,4319.231
1783984326.9944,16:12:06.994,23,false,0.0,4267.692,4317.692,4255.0,4306.026,4298.974
1783984327.0021,16:12:07.002,24,false,0.0,4266.154,4383.718,4227.436,4235.897,4265.0
1783984327.01,16:12:07.010,25,false,0.0,4245.128,4424.487,4206.923,4196.41,4272.308
1783984327.0178,16:12:07.017,26,false,0.0,4253.59,4439.359,4206.282,4214.872,4322.436
1783984327.0256,16:12:07.025,27,false,0.0,4263.59,4422.564,4197.051,4238.333,4351.154
1783984327.0333,16:12:07.033,28,false,0.0,4272.179,4412.436,4180.641,4242.949,4342.308
1783984327.0411,16:12:07.041,29,false,0.0,4259.615,4376.41,4183.59,4244.744,4355.128
1783984327.0489,16:12:07.048,30,false,0.0,4225.385,4310.0,4198.846,4240.0,4330.769
1783984327.0567,16:12:07.056,31,false,0.0,4204.744,4323.205,4215.769,4215.769,4246.154
1783984327.0646,16:12:07.064,32,false,0.0,4176.282,4356.154,4239.744,4189.359,4237.564
1783984327.0724,16:12:07.072,33,false,0.0,4136.282,4288.718,4254.487,4196.282,4258.077
1783984327.0802,16:12:07.080,34,false,0.0,4125.128,4244.615,4256.538,4233.846,4203.59
1783984327.0881,16:12:07.088,35,false,0.0,4119.103,4270.897,4273.077,4269.487,4221.282
1783984327.096,16:12:07.096,36,false,0.0,4126.41,4253.59,4292.564,4285.128,4284.103
1783984327.1038,16:12:07.103,37,false,0.0,4187.051,4276.795,4283.974,4265.513,4205.769
1783984327.1116,16:12:07.111,38,false,0.0,4214.487,4373.333,4257.949,4248.59,4191.923
1783984327.1194,16:12:07.119,39,false,0.0,4195.513,4361.41,4226.538,4306.538,4375.256
1783984327.1273,16:12:07.127,40,false,0.0,4253.333,4314.872,4198.205,4354.103,4423.974
1783984327.1351,16:12:07.135,41,false,0.0,4313.846,4406.538,4195.128,4281.282,4302.051
1783984327.1429,16:12:07.142,42,false,0.0,4264.231,4474.615,4195.513,4220.128,4305.128
1783984327.1507,16:12:07.150,43,false,0.0,4243.59,4423.462,4172.564,4257.949,4361.282
1783984327.1586,16:12:07.158,44,false,0.0,4300.256,4413.974,4167.179,4256.154,4320.128
1783984327.1665,16:12:07.166,45,false,0.0,4297.692,4437.436,4195.385,4205.897,4292.564
1783984327.1743,16:12:07.174,46,false,0.0,4245.128,4387.308,4217.692,4202.692,4285.385
1783984327.1821,16:12:07.182,47,false,0.0,4201.667,4316.923,4235.256,4201.667,4256.923
1783984327.19,16:12:07.190,48,false,0.0,4148.59,4270.385,4256.154,4196.41,4273.59
1783984327.1978,16:12:07.197,49,false,0.0,4130.128,4242.436,4263.205,4225.897,4255.897
1783984327.2056,16:12:07.205,50,false,0.0,4156.282,4261.026,4277.051,4223.718,4143.205
1783984327.2134,16:12:07.213,51,false,0.0,4151.41,4286.923,4295.385,4211.538,4117.949
1783984327.2211,16:12:07.221,52,false,0.0,4130.0,4267.949,4275.641,4262.692,4230.385
1783984327.2289,16:12:07.228,53,false,0.0,4153.846,4267.051,4249.359,4282.308,4285.513
1783984327.2367,16:12:07.236,54,false,0.0,4214.103,4335.385,4254.615,4236.154,4235.641
1783984327.2446,16:12:07.244,55,false,0.0,4254.872,4401.026,4240.513,4247.179,4242.051
1783984327.2523,16:12:07.252,56,false,0.0,4236.026,4392.821,4198.462,4301.41,4353.205
1783984327.2601,16:12:07.260,57,false,0.0,4224.359,4370.385,4183.974,4287.308,4408.462
1783984327.2679,16:12:07.267,58,false,0.0,4286.41,4415.128,4187.949,4227.949,4337.821
1783984327.2757,16:12:07.275,59,false,0.0,4321.923,4459.103,4180.769,4199.744,4296.026
1783984327.2834,16:12:07.283,60,false,0.0,4277.179,4419.231,4178.462,4205.385,4338.077
1783984327.2912,16:12:07.291,61,false,0.0,4248.59,4363.333,4190.897,4215.256,4339.487
1783984327.299,16:12:07.299,62,false,0.0,4233.59,4331.923,4215.385,4225.385,4309.231
1783984327.3068,16:12:07.306,63,false,0.0,4189.744,4273.846,4247.564,4238.718,4317.821
1783984327.3145,16:12:07.314,64,false,0.0,4182.308,4240.0,4271.026,4223.333,4275.0
1783984327.3224,16:12:07.322,65,false,0.0,4187.821,4283.59,4281.538,4184.615,4174.744
1783984327.3302,16:12:07.330,66,false,0.0,4129.615,4293.846,4277.692,4210.256,4185.128
1783984327.338,16:12:07.338,67,false,0.0,4097.051,4232.436,4261.795,4291.923,4283.333
1783984327.3457,16:12:07.345,68,false,0.0,4157.308,4235.513,4262.564,4292.821,4271.795
1783984327.3535,16:12:07.353,69,false,0.0,4205.641,4324.359,4270.897,4222.821,4188.333
1783984327.3613,16:12:07.361,70,false,0.0,4191.667,4369.487,4244.231,4231.282,4224.744
1783984327.3691,16:12:07.369,71,false,0.0,4189.103,4356.41,4205.769,4295.769,4341.923
1783984327.3768,16:12:07.376,72,false,0.0,4236.923,4373.846,4191.154,4289.231,4376.538
1783984327.3846,16:12:07.384,73,false,0.0,4300.256,4421.667,4184.872,4243.846,4340.897
1783984327.3924,16:12:07.392,74,false,0.0,4323.077,4440.641,4184.359,4229.231,4329.487
1783984327.4003,16:12:07.400,75,false,0.0,4299.103,4423.846,4189.872,4211.538,4347.949
1783984327.4082,16:12:07.408,76,false,0.0,4280.769,4394.744,4189.615,4203.205,4359.615
1783984327.416,16:12:07.416,77,false,0.0,4268.718,4353.077,4205.769,4246.795,4357.564
1783984327.4238,16:12:07.423,78,false,0.0,4228.333,4295.385,4238.462,4266.795,4347.179
1783984327.4316,16:12:07.431,79,false,0.0,4200.385,4261.026,4257.564,4203.974,4297.564
1783984327.4393,16:12:07.439,80,false,0.0,4190.769,4272.308,4272.179,4152.692,4218.974
1783984327.4471,16:12:07.447,81,false,0.0,4140.641,4255.0,4276.282,4200.128,4226.154
1783984327.4549,16:12:07.454,82,false,0.0,4110.513,4186.41,4254.487,4279.744,4294.103
1783984327.4627,16:12:07.462,83,false,0.0,4162.179,4193.205,4252.564,4277.692,4234.359
1783984327.4707,16:12:07.470,84,false,0.0,4192.179,4298.974,4270.385,4217.179,4120.897
1783984327.4785,16:12:07.478,85,false,0.0,4166.41,4352.051,4249.103,4217.051,4175.641
1783984327.4863,16:12:07.486,86,false,0.0,4170.769,4323.974,4212.949,4270.513,4298.077
1783984327.4941,16:12:07.494,87,false,0.0,4201.154,4330.385,4201.282,4268.333,4310.513
1783984327.502,16:12:07.502,88,false,0.0,4240.513,4389.872,4195.385,4229.359,4280.769
1783984327.5098,16:12:07.509,89,false,0.0,4299.103,4428.974,4200.256,4246.154,4298.59
1783984327.5176,16:12:07.517,90,false,0.0,4311.795,4408.846,4209.487,4281.923,4367.436
1783984327.5254,16:12:07.525,91,false,0.0,4292.051,4366.538,4196.923,4256.923,4423.205
1783984327.5333,16:12:07.533,92,false,0.0,4313.59,4371.282,4203.462,4209.359,4366.026
1783984327.5411,16:12:07.541,93,false,0.0,4293.974,4390.128,4240.897,4200.256,4283.462
1783984327.549,16:12:07.549,94,false,0.0,4205.256,4345.128,4253.59,4201.667,4300.769
1783984327.5568,16:12:07.556,95,false,0.0,4171.538,4292.949,4254.103,4189.872,4294.615
1783984327.5647,16:12:07.564,96,false,0.0,4160.641,4281.538,4267.436,4203.205,4231.41
1783984327.5725,16:12:07.572,97,false,0.0,4102.692,4238.718,4256.538,4238.59,4247.692
1783984327.5803,16:12:07.580,98,false,0.0,4112.179,4200.385,4240.769,4241.667,4239.103
1783984327.5881,16:12:07.588,99,false,0.0,4182.308,4259.872,4262.821,4218.333,4109.359
1783984327.5958,16:12:07.595,100,false,0.0,4162.949,4320.385,4275.128,4220.897,4081.282
1783984327.6036,16:12:07.603,101,false,0.0,4114.103,4296.026,4243.205,4251.538,4225.769
1783984327.6114,16:12:07.611,102,false,0.0,4164.487,4297.564,4212.051,4264.872,4309.872
1783984327.6192,16:12:07.619,103,false,0.0,4246.154,4368.333,4206.923,4252.179,4262.949
1783984327.627,16:12:07.627,104,false,0.0,4275.128,4398.205,4205.641,4264.103,4255.128
1783984327.6348,16:12:07.634,105,false,0.0,4277.308,4367.821,4197.051,4299.872,4361.538
1783984327.6426,16:12:07.642,106,false,0.0,4285.769,4361.795,4199.103,4277.564,4429.103
1783984327.6504,16:12:07.650,107,false,0.0,4301.538,4389.103,4222.436,4206.026,4347.821
1783984327.6581,16:12:07.658,108,false,0.0,4289.872,4395.769,4241.154,4185.0,4278.462
1783984327.6659,16:12:07.665,109,false,0.0,4230.769,4371.154,4239.231,4202.692,4322.436
1783984327.6737,16:12:07.673,110,false,0.0,4180.0,4334.487,4241.538,4194.872,4316.154
1783984327.6815,16:12:07.681,111,false,0.0,4162.949,4283.462,4248.974,4200.641,4247.179
1783984327.6892,16:12:07.689,112,false,0.0,4137.564,4222.564,4238.974,4239.872,4254.103
1783984327.697,16:12:07.697,113,false,0.0,4125.513,4205.513,4232.692,4239.872,4229.744
1783984327.7049,16:12:07.704,114,false,0.0,4140.513,4265.513,4253.077,4197.436,4120.513
1783984327.7127,16:12:07.712,115,false,0.0,4111.923,4317.051,4266.41,4199.744,4141.538
1783984327.7204,16:12:07.720,116,false,0.0,4068.59,4276.282,4246.795,4249.103,4259.487
1783984327.7282,16:12:07.728,117,false,0.0,4113.205,4245.385,4226.923,4254.231,4233.718
1783984327.736,16:12:07.736,118,false,0.0,4199.744,4328.974,4231.923,4220.641,4146.795
1783984327.7438,16:12:07.743,119,false,0.0,4237.949,4405.641,4230.897,4241.667,4194.872
1783984327.7515,16:12:07.751,120,false,0.0,4248.333,4379.103,4207.051,4290.513,4319.103
1783984327.7593,16:12:07.759,121,false,0.0,4259.103,4365.0,4204.231,4276.795,4385.385
1783984327.7671,16:12:07.767,122,false,0.0,4273.205,4409.231,4235.385,4227.949,4351.923
1783984327.7749,16:12:07.774,123,false,0.0,4288.077,4419.487,4248.077,4194.744,4286.538
1783984327.7827,16:12:07.782,124,false,0.0,4262.308,4394.615,4233.205,4179.615,4297.949
1783984327.7905,16:12:07.790,125,false,0.0,4208.077,4374.231,4232.821,4201.41,4326.795
1783984327.7983,16:12:07.798,126,false,0.0,4185.256,4333.718,4241.154,4232.564,4282.821
1783984327.8061,16:12:07.806,127,false,0.0,4167.949,4278.718,4233.59,4228.333,4263.59
1783984327.8138,16:12:07.813,0,false,0.0,4138.846,4250.0,4235.385,4217.051,4265.0
1783984327.8216,16:12:07.821,1,false,0.0,4137.436,4269.231,4260.0,4203.59,4178.205
1783984327.8294,16:12:07.829,2,false,0.0,4120.128,4305.769,4268.59,4201.026,4149.615
1783984327.8372,16:12:07.837,3,false,0.0,4077.179,4282.308,4246.154,4270.0,4257.051
1783984327.8451,16:12:07.845,4,false,0.0,4114.359,4246.282,4236.282,4317.949,4257.308
1783984327.8529,16:12:07.852,5,false,0.0,4203.846,4316.667,4254.487,4253.59,4146.41
1783984327.8608,16:12:07.860,6,false,0.0,4223.59,4391.795,4250.897,4235.256,4179.744
1783984327.8686,16:12:07.868,7,false,0.0,4208.718,4353.077,4214.872,4313.205,4312.436
1783984327.8765,16:12:07.876,8,false,0.0,4228.59,4339.872,4208.205,4312.692,4354.487
1783984327.8843,16:12:07.884,9,false,0.0,4258.205,4407.564,4238.974,4245.0,4321.154
1783984327.8921,16:12:07.892,10,false,0.0,4280.256,4422.564,4249.744,4227.436,4294.359
1783984327.8999,16:12:07.899,11,false,0.0,4282.308,4401.923,4234.231,4221.667,4310.128
1783984327.9078,16:12:07.907,12,false,0.0,4252.179,4409.487,4225.897,4206.667,4333.462
1783984327.9156,16:12:07.915,13,false,0.0,4217.692,4373.59,4221.282,4215.128,4302.564
1783984327.9234,16:12:07.923,14,false,0.0,4182.308,4299.359,4213.718,4220.128,4274.615
1783984327.9312,16:12:07.931,15,false,0.0,4153.718,4281.154,4223.718,4207.564,4253.462
1783984327.9392,16:12:07.939,16,false,0.0,4160.256,4315.0,4253.205,4181.41,4143.077
1783984327.947,16:12:07.947,17,false,0.0,4145.641,4324.231,4265.513,4168.718,4088.462
1783984327.9548,16:12:07.954,18,false,0.0,4086.667,4272.436,4244.359,4224.359,4213.718
1783984327.9626,16:12:07.962,19,false,0.0,4094.744,4235.0,4237.179,4277.692,4250.128
1783984327.9705,16:12:07.970,20,false,0.0,4175.641,4290.641,4269.487,4243.462,4102.692
1783984327.9783,16:12:07.978,21,false,0.0,4208.462,4345.385,4278.974,4220.385,4071.154
1783984327.9861,16:12:07.986,22,false,0.0,4192.564,4332.051,4238.974,4254.744,4211.026
1783984327.9939,16:12:07.993,23,false,0.0,4211.154,4362.179,4216.026,4258.974,4304.744
1783984328.0018,16:12:08.001,24,false,0.0,4277.051,4438.205,4239.359,4244.487,4303.333
1783984328.0096,16:12:08.009,25,false,0.0,4334.744,4449.872,4260.385,4242.179,4294.872
1783984328.0175,16:12:08.017,26,false,0.0,4313.077,4427.564,4241.026,4222.308,4344.487
1783984328.0253,16:12:08.025,27,false,0.0,4243.974,4409.487,4199.615,4216.538,4404.487
1783984328.0332,16:12:08.033,28,false,0.0,4233.462,4370.769,4193.077,4217.051,4344.231
1783984328.041,16:12:08.041,29,false,0.0,4243.718,4360.0,4226.41,4186.026,4239.744
1783984328.0488,16:12:08.048,30,false,0.0,4181.41,4356.026,4232.051,4205.641,4272.692
1783984328.0566,16:12:08.056,31,false,0.0,4124.487,4275.385,4215.128,4262.051,4321.538
1783984328.0643,16:12:08.064,32,false,0.0,4145.256,4220.897,4240.0,4214.872,4205.385
1783984328.0721,16:12:08.072,33,false,0.0,4154.872,4277.308,4273.846,4145.128,4062.949
1783984328.0799,16:12:08.079,34,false,0.0,4113.077,4302.308,4264.487,4196.538,4073.718
1783984328.0877,16:12:08.087,35,false,0.0,4094.359,4246.667,4248.333,4264.615,4178.59
1783984328.0955,16:12:08.095,36,false,0.0,4128.333,4244.744,4248.205,4252.308,4224.231
1783984328.1033,16:12:08.103,37,false,0.0,4189.487,4311.795,4255.769,4231.923,4168.59
1783984328.1111,16:12:08.111,38,false,0.0,4242.436,4354.872,4272.564,4239.359,4150.0
1783984328.1189,16:12:08.118,39,false,0.0,4243.205,4364.103,4266.282,4257.051,4277.436
1783984328.1268,16:12:08.126,40,false,0.0,4226.154,4373.333,4232.308,4269.872,4393.846
1783984328.1346,16:12:08.134,41,false,0.0,4265.256,4393.718,4225.385,4240.897,4346.026
1783984328.1424,16:12:08.142,42,false,0.0,4305.385,4418.846,4231.667,4197.436,4275.641
1783984328.1502,16:12:08.150,43,false,0.0,4279.359,4413.462,4212.308,4200.769,4296.282
1783984328.1579,16:12:08.157,44,false,0.0,4260.0,4376.667,4207.179,4208.59,4280.0
1783984328.1658,16:12:08.165,45,false,0.0,4251.667,4357.179,4219.744,4185.769,4223.846
1783984328.1736,16:12:08.173,46,false,0.0,4174.103,4333.718,4208.59,4190.256,4263.077
1783984328.1814,16:12:08.181,47,false,0.0,4119.872,4275.0,4213.077,4209.872,4275.128
1783984328.1891,16:12:08.189,48,false,0.0,4170.0,4268.846,4257.308,4180.128,4137.051
1783984328.1969,16:12:08.196,49,false,0.0,4174.359,4316.667,4271.41,4169.359,4096.282
1783984328.2047,16:12:08.204,50,false,0.0,4093.462,4273.718,4245.641,4246.026,4243.59
1783984328.2125,16:12:08.212,51,false,0.0,4095.256,4200.256,4247.564,4292.821,4258.974
1783984328.2204,16:12:08.220,52,false,0.0,4183.846,4268.846,4277.949,4238.333,4106.41
1783984328.2282,16:12:08.228,53,false,0.0,4220.256,4364.615,4285.256,4215.256,4109.487
1783984328.236,16:12:08.236,54,false,0.0,4200.641,4343.077,4264.103,4265.256,4272.179
1783984328.2439,16:12:08.243,55,false,0.0,4208.718,4332.436,4239.615,4268.205,4343.205
1783984328.2518,16:12:08.251,56,false,0.0,4258.205,4399.487,4223.846,4235.128,4304.359
1783984328.2596,16:12:08.259,57,false,0.0,4277.308,4427.308,4214.231,4245.0,4294.231
1783984328.2674,16:12:08.267,58,false,0.0,4233.333,4388.846,4198.974,4246.41,4350.769
1783984328.2752,16:12:08.275,59,false,0.0,4221.667,4349.744,4178.59,4216.41,4377.692
1783984328.2831,16:12:08.283,60,false,0.0,4262.564,4347.821,4178.59,4203.718,4297.949
1783984328.2909,16:12:08.290,61,false,0.0,4223.462,4363.462,4203.59,4197.308,4232.692
1783984328.2987,16:12:08.298,62,false,0.0,4122.436,4315.385,4218.333,4206.795,4283.846
1783984328.3065,16:12:08.306,63,false,0.0,4106.923,4222.051,4217.308,4240.513,4290.769
1783984328.3144,16:12:08.314,64,false,0.0,4143.974,4219.103,4234.872,4217.179,4167.949
1783984328.3223,16:12:08.322,65,false,0.0,4140.0,4288.333,4267.436,4162.436,4085.128
1783984328.3301,16:12:08.330,66,false,0.0,4121.026,4298.077,4279.872,4193.974,4122.308
1783984328.3379,16:12:08.337,67,false,0.0,4107.821,4260.513,4272.051,4255.385,4198.205
1783984328.3458,16:12:08.345,68,false,0.0,4118.718,4262.051,4267.436,4246.923,4233.462
1783984328.3536,16:12:08.353,69,false,0.0,4189.103,4313.59,4272.436,4226.41,4182.821
1783984328.3614,16:12:08.361,70,false,0.0,4248.077,4366.538,4267.051,4243.205,4145.0
1783984328.3692,16:12:08.369,71,false,0.0,4231.41,4377.308,4233.205,4260.641,4255.897
1783984328.3769,16:12:08.376,72,false,0.0,4218.077,4376.026,4202.308,4257.436,4379.487
1783984328.3847,16:12:08.384,73,false,0.0,4256.795,4407.564,4208.462,4236.538,4347.308
1783984328.3925,16:12:08.392,74,false,0.0,4281.41,4429.744,4212.179,4220.0,4295.0
1783984328.4004,16:12:08.400,75,false,0.0,4259.872,4399.103,4185.513,4232.051,4338.974
1783984328.4081,16:12:08.408,76,false,0.0,4242.692,4347.564,4178.846,4239.359,4338.974
1783984328.4159,16:12:08.415,77,false,0.0,4242.564,4328.462,4203.333,4198.718,4241.667
1783984328.4237,16:12:08.423,78,false,0.0,4190.769,4338.462,4217.821,4152.179,4213.59
1783984328.4315,16:12:08.431,79,false,0.0,4100.256,4292.179,4231.795,4184.744,4292.179
1783984328.4392,16:12:08.439,80,false,0.0,4091.667,4195.385,4253.846,4265.385,4289.615
1783984328.447,16:12:08.447,81,false,0.0,4130.769,4196.282,4257.564,4258.846,4160.0
1783984328.4548,16:12:08.454,82,false,0.0,4089.487,4272.308,4263.333,4183.974,4093.077
1783984328.4626,16:12:08.462,83,false,0.0,4047.051,4269.359,4285.0,4201.795,4156.667
1783984328.4703,16:12:08.470,84,false,0.0,4096.795,4245.769,4281.026,4283.077,4232.308
1783984328.4782,16:12:08.478,85,false,0.0,4152.308,4292.436,4257.564,4281.795,4253.59
1783984328.486,16:12:08.486,86,false,0.0,4194.615,4347.692,4249.103,4243.974,4230.0
1783984328.4938,16:12:08.493,87,false,0.0,4248.974,4397.821,4231.282,4266.667,4234.487
1783984328.5015,16:12:08.501,88,false,0.0,4249.487,4423.974,4198.846,4302.308,4343.077
1783984328.5093,16:12:08.509,89,false,0.0,4241.41,4381.282,4186.795,4291.026,4420.513
1783984328.5171,16:12:08.517,90,false,0.0,4292.949,4380.769,4189.103,4243.462,4339.872
1783984328.5249,16:12:08.524,91,false,0.0,4298.974,4444.231,4191.282,4211.282,4279.231
1783984328.5326,16:12:08.532,92,false,0.0,4251.795,4419.103,4203.077,4227.564,4312.821
1783984328.5404,16:12:08.540,93,false,0.0,4250.128,4347.821,4221.282,4227.051,4254.231
1783984328.5482,16:12:08.548,94,false,0.0,4222.308,4336.41,4238.077,4178.59,4163.846
1783984328.5561,16:12:08.556,95,false,0.0,4130.641,4300.385,4246.282,4180.385,4221.667
1783984328.5638,16:12:08.563,96,false,0.0,4105.256,4241.538,4248.718,4238.077,4252.436
1783984328.5716,16:12:08.571,97,false,0.0,4154.103,4256.795,4276.41,4250.897,4102.436
1783984328.5794,16:12:08.579,98,false,0.0,4164.615,4292.692,4309.359,4236.282,4015.0
1783984328.5872,16:12:08.587,99,false,0.0,4130.897,4293.462,4288.077,4245.769,4144.615
1783984328.5951,16:12:08.595,100,false,0.0,4128.205,4301.667,4249.487,4253.205,4267.308
1783984328.6029,16:12:08.602,101,false,0.0,4173.974,4328.077,4246.667,4269.487,4251.154
1783984328.6107,16:12:08.610,102,false,0.0,4205.897,4359.103,4234.744,4296.282,4255.769
1783984328.6185,16:12:08.618,103,false,0.0,4213.205,4393.59,4205.513,4279.487,4318.333
1783984328.6264,16:12:08.626,104,false,0.0,4251.538,4422.051,4205.385,4257.692,4318.846
1783984328.6343,16:12:08.634,105,false,0.0,4267.436,4419.231,4202.821,4285.513,4323.846
1783984328.6421,16:12:08.642,106,false,0.0,4225.897,4374.103,4173.59,4281.538,4386.154
1783984328.6499,16:12:08.649,107,false,0.0,4240.513,4355.0,4169.487,4214.487,4345.385
1783984328.6578,16:12:08.657,108,false,0.0,4268.333,4392.436,4192.179,4191.282,4250.513
1783984328.6656,16:12:08.665,109,false,0.0,4189.359,4361.667,4206.795,4233.333,4298.077
1783984328.6734,16:12:08.673,110,false,0.0,4144.103,4257.051,4230.769,4247.308,4329.615
1783984328.6812,16:12:08.681,111,false,0.0,4182.692,4253.846,4265.769,4205.128,4188.846
1783984328.6891,16:12:08.689,112,false,0.0,4121.923,4317.179,4277.051,4169.359,4111.026
1783984328.6969,16:12:08.696,113,false,0.0,4028.333,4280.513,4268.333,4196.282,4194.359
1783984328.7047,16:12:08.704,114,false,0.0,4059.487,4212.308,4269.103,4257.821,4229.359
1783984328.7126,16:12:08.712,115,false,0.0,4104.872,4229.487,4277.051,4264.744,4164.487
1783984328.7205,16:12:08.720,116,false,0.0,4125.897,4286.282,4274.359,4218.846,4110.0
1783984328.7283,16:12:08.728,117,false,0.0,4193.333,4343.462,4256.41,4216.154,4124.103
1783984328.7361,16:12:08.736,118,false,0.0,4209.231,4388.205,4225.513,4254.103,4228.462
1783984328.7439,16:12:08.743,119,false,0.0,4171.538,4384.615,4193.718,4252.051,4325.256
1783984328.7518,16:12:08.751,120,false,0.0,4220.641,4379.872,4191.026,4227.436,4281.923
1783984328.7596,16:12:08.759,121,false,0.0,4279.744,4418.718,4210.769,4227.821,4212.308
1783984328.7674,16:12:08.767,122,false,0.0,4234.615,4423.462,4202.436,4227.179,4278.59
1783984328.7752,16:12:08.775,123,false,0.0,4191.282,4369.359,4177.949,4214.872,4357.564
1783984328.7829,16:12:08.782,124,false,0.0,4206.923,4349.615,4194.615,4212.436,4296.667
1783984328.7908,16:12:08.790,125,false,0.0,4190.0,4367.179,4230.769,4205.769,4212.692
1783984328.7986,16:12:08.798,126,false,0.0,4122.564,4323.59,4244.231,4198.462,4242.179
1783984328.8064,16:12:08.806,127,false,0.0,4083.718,4231.795,4257.564,4215.897,4278.718
1783984328.8141,16:12:08.814,0,false,0.0,4109.359,4212.179,4279.231,4223.846,4184.872
1783984328.8219,16:12:08.821,1,false,0.0,4146.41,4276.282,4289.359,4203.077,4059.359
1783984328.8297,16:12:08.829,2,false,0.0,4138.077,4308.077,4288.718,4213.846,4071.154
1783984328.8375,16:12:08.837,3,false,0.0,4106.282,4276.154,4271.026,4258.462,4185.128
1783984328.8452,16:12:08.845,4,false,0.0,4091.41,4262.564,4240.513,4267.821,4265.513
1783984328.853,16:12:08.853,5,false,0.0,4106.026,4284.231,4225.385,4259.103,4288.462
1783984328.8609,16:12:08.860,6,false,0.0,4166.795,4311.282,4216.41,4271.795,4285.641
1783984328.8687,16:12:08.868,7,false,0.0,4245.256,4377.949,4204.103,4260.641,4256.538
1783984328.8764,16:12:08.876,8,false,0.0,4272.949,4458.846,4209.744,4227.436,4242.179
1783984328.8842,16:12:08.884,9,false,0.0,4256.282,4441.667,4209.103,4226.923,4299.615
1783984328.892,16:12:08.892,10,false,0.0,4244.359,4363.333,4182.564,4220.769,4361.154
1783984328.8998,16:12:08.899,11,false,0.0,4245.256,4366.795,4186.923,4181.538,4308.462
1783984328.9075,16:12:08.907,12,false,0.0,4237.436,4412.564,4233.077,4178.59,4212.051
1783984328.9153,16:12:08.915,13,false,0.0,4188.59,4366.026,4255.256,4210.128,4236.795
1783984328.9231,16:12:08.923,14,false,0.0,4122.692,4268.462,4251.41,4212.308,4300.0
1783984328.9309,16:12:08.930,15,false,0.0,4121.795,4244.872,4268.205,4190.641,4204.744
1783984328.9387,16:12:08.938,16,false,0.0,4158.077,4282.949,4290.513,4169.231,4053.59
1783984328.9465,16:12:08.946,17,false,0.0,4135.256,4293.333,4284.231,4169.615,4059.744
1783984328.9543,16:12:08.954,18,false,0.0,4091.282,4271.282,4266.282,4215.897,4158.205
1783984328.9621,16:12:08.962,19,false,0.0,4093.718,4272.821,4258.59,4257.949,4211.026
1783984328.97,16:12:08.970,20,false,0.0,4110.641,4303.59,4246.282,4251.667,4236.538
1783984328.9778,16:12:08.977,21,false,0.0,4140.641,4335.513,4224.487,4243.718,4246.538
1783984328.9856,16:12:08.985,22,false,0.0,4203.974,4376.154,4218.333,4247.179,4218.718
1783984328.9934,16:12:08.993,23,false,0.0,4250.128,4423.077,4224.615,4238.205,4207.821
1783984329.0013,16:12:09.001,24,false,0.0,4251.282,4430.0,4211.795,4240.641,4270.769
1783984329.0091,16:12:09.009,25,false,0.0,4243.974,4399.103,4190.897,4246.667,4353.333
1783984329.017,16:12:09.017,26,false,0.0,4254.744,4392.692,4199.615,4218.846,4332.821
1783984329.0248,16:12:09.024,27,false,0.0,4266.795,4411.154,4229.744,4190.0,4239.487
1783984329.0327,16:12:09.032,28,false,0.0,4229.744,4386.026,4242.692,4201.923,4265.128
1783984329.0405,16:12:09.040,29,false,0.0,4161.026,4309.359,4239.615,4223.462,4352.949
1783984329.0483,16:12:09.048,30,false,0.0,4148.077,4266.667,4255.256,4198.974,4256.538
1783984329.0561,16:12:09.056,31,false,0.0,4156.795,4301.41,4281.282,4149.744,4104.103
1783984329.064,16:12:09.064,32,false,0.0,4103.205,4322.308,4271.026,4170.256,4154.103
1783984329.0718,16:12:09.071,33,false,0.0,4063.59,4258.718,4240.897,4243.974,4244.615
1783984329.0796,16:12:09.079,34,false,0.0,4098.846,4211.667,4247.692,4247.692,4186.282
1783984329.0874,16:12:09.087,35,false,0.0,4138.462,4266.282,4272.564,4214.103,4105.128
1783984329.0954,16:12:09.095,36,false,0.0,4169.359,4337.051,4263.974,4242.692,4100.769
1783984329.1032,16:12:09.103,37,false,0.0,4199.872,4364.231,4232.949,4265.0,4180.0
1783984329.111,16:12:09.111,38,false,0.0,4200.128,4390.769,4206.282,4251.923,4329.872
1783984329.1188,16:12:09.118,39,false,0.0,4226.282,4401.154,4193.333,4289.615,4402.564
1783984329.1265,16:12:09.126,40,false,0.0,4291.282,4379.103,4204.744,4311.154,4345.385
1783984329.1343,16:12:09.134,41,false,0.0,4293.462,4393.974,4220.513,4231.538,4312.564
1783984329.1421,16:12:09.142,42,false,0.0,4263.077,4439.487,4217.564,4177.179,4322.051
1783984329.1499,16:12:09.149,43,false,0.0,4283.333,4425.641,4223.077,4215.641,4286.282
1783984329.1578,16:12:09.157,44,false,0.0,4284.615,4365.513,4246.41,4226.41,4236.923
1783984329.1656,16:12:09.165,45,false,0.0,4215.128,4331.667,4256.667,4171.795,4195.0
1783984329.1735,16:12:09.173,46,false,0.0,4116.282,4307.564,4254.872,4146.154,4183.077
1783984329.1813,16:12:09.181,47,false,0.0,4042.436,4251.795,4252.821,4193.462,4247.179
1783984329.189,16:12:09.189,48,false,0.0,4070.256,4209.872,4243.333,4250.385,4268.846
1783984329.1968,16:12:09.196,49,false,0.0,4152.308,4237.308,4244.231,4249.231,4185.513
1783984329.2046,16:12:09.204,50,false,0.0,4149.615,4291.795,4266.41,4227.949,4161.026
1783984329.2124,16:12:09.212,51,false,0.0,4124.615,4315.385,4272.308,4247.821,4212.051
1783984329.2201,16:12:09.220,52,false,0.0,4163.846,4321.667,4245.385,4270.128,4242.308
1783984329.2279,16:12:09.227,53,false,0.0,4186.154,4332.564,4216.795,4266.154,4293.974
1783984329.2357,16:12:09.235,54,false,0.0,4214.872,4368.205,4206.667,4272.051,4312.436
1783984329.2435,16:12:09.243,55,false,0.0,4282.436,4428.462,4207.692,4280.385,4265.513
1783984329.2513,16:12:09.251,56,false,0.0,4271.538,4424.615,4212.436,4282.179,4344.872
1783984329.2591,16:12:09.259,57,false,0.0,4244.744,4358.718,4223.846,4288.462,4459.103
1783984329.2669,16:12:09.266,58,false,0.0,4309.615,4376.538,4239.231,4250.256,4362.692
1783984329.2747,16:12:09.274,59,false,0.0,4307.308,4433.333,4244.359,4184.615,4273.846
1783984329.2824,16:12:09.282,60,false,0.0,4214.231,4382.308,4240.641,4193.205,4344.487
1783984329.2902,16:12:09.290,61,false,0.0,4195.641,4321.282,4243.077,4236.154,4323.846
1783984329.298,16:12:09.298,62,false,0.0,4189.744,4317.564,4243.205,4231.923,4250.897
1783984329.3058,16:12:09.305,63,false,0.0,4138.333,4254.744,4232.692,4239.103,4292.949
1783984329.3135,16:12:09.313,64,false,0.0,4152.051,4206.154,4234.487,4255.256,4258.846
1783984329.3213,16:12:09.321,65,false,0.0,4175.385,4290.0,4260.256,4210.769,4131.538
1783984329.3292,16:12:09.329,66,false,0.0,4123.077,4350.0,4276.538,4194.359,4152.692
1783984329.337,16:12:09.337,67,false,0.0,4101.538,4299.231,4256.154,4263.462,4252.051
1783984329.3447,16:12:09.344,68,false,0.0,4153.974,4284.744,4229.744,4290.385,4248.077
1783984329.3525,16:12:09.352,69,false,0.0,4219.231,4349.872,4235.513,4251.282,4194.744
1783984329.3603,16:12:09.360,70,false,0.0,4268.333,4399.872,4245.385,4257.051,4200.769
1783984329.3681,16:12:09.368,71,false,0.0,4267.692,4397.692,4228.333,4289.615,4304.744
1783984329.376,16:12:09.376,72,false,0.0,4250.256,4376.795,4224.487,4273.718,4411.538
1783984329.3838,16:12:09.383,73,false,0.0,4287.564,4382.949,4247.436,4231.154,4374.103
1783984329.3916,16:12:09.391,74,false,0.0,4315.897,4408.974,4246.282,4195.641,4286.923
1783984329.3994,16:12:09.399,75,false,0.0,4280.128,4402.949,4227.692,4182.692,4296.795
1783984329.4074,16:12:09.407,76,false,0.0,4256.154,4369.615,4235.0,4199.744,4290.641
1783984329.4152,16:12:09.415,77,false,0.0,4243.462,4342.308,4245.0,4197.564,4224.103
1783984329.423,16:12:09.423,78,false,0.0,4179.359,4308.974,4236.154,4172.308,4239.744
1783984329.4308,16:12:09.430,79,false,0.0,4128.59,4270.385,4240.385,4185.256,4260.769
1783984329.4387,16:12:09.438,80,false,0.0,4150.385,4267.949,4263.718,4197.308,4135.128
1783984329.4465,16:12:09.446,81,false,0.0,4156.795,4302.051,4274.103,4173.718,4051.795
1783984329.4543,16:12:09.454,82,false,0.0,4104.487,4311.538,4256.923,4202.821,4173.333
1783984329.4621,16:12:09.462,83,false,0.0,4108.462,4286.538,4238.205,4263.077,4258.462
1783984329.47,16:12:09.470,84,false,0.0,4210.0,4308.205,4252.179,4252.051,4159.231
1783984329.4779,16:12:09.477,85,false,0.0,4268.718,4375.128,4271.667,4238.462,4124.615
1783984329.4857,16:12:09.485,86,false,0.0,4232.051,4382.692,4248.205,4275.385,4271.923
1783984329.4935,16:12:09.493,87,false,0.0,4230.385,4355.385,4221.923,4275.128,4381.923
1783984329.5014,16:12:09.501,88,false,0.0,4296.282,4391.538,4241.667,4239.615,4350.769
1783984329.5092,16:12:09.509,89,false,0.0,4315.256,4436.795,4256.795,4214.615,4305.897
1783984329.517,16:12:09.517,90,false,0.0,4274.615,4423.974,4233.718,4181.923,4314.231
1783984329.5248,16:12:09.524,91,false,0.0,4249.103,4406.154,4219.487,4177.051,4322.308
1783984329.5327,16:12:09.532,92,false,0.0,4233.846,4390.128,4223.462,4212.821,4306.41
1783984329.5405,16:12:09.540,93,false,0.0,4201.795,4335.256,4217.564,4224.872,4298.333
1783984329.5483,16:12:09.548,94,false,0.0,4179.103,4288.718,4221.667,4211.667,4270.0
1783984329.5562,16:12:09.556,95,false,0.0,4162.179,4295.513,4251.41,4183.077,4178.718
1783984329.5639,16:12:09.563,96,false,0.0,4110.385,4300.385,4263.846,4159.487,4139.615
1783984329.5717,16:12:09.571,97,false,0.0,4053.462,4252.051,4243.205,4220.641,4218.718
1783984329.5795,16:12:09.579,98,false,0.0,4075.385,4210.256,4239.744,4289.231,4216.795
1783984329.5873,16:12:09.587,99,false,0.0,4163.718,4255.897,4268.59,4242.564,4085.769
1783984329.595,16:12:09.595,100,false,0.0,4212.436,4329.359,4277.821,4213.333,4090.641
1783984329.6028,16:12:09.602,101,false,0.0,4200.385,4335.769,4254.231,4278.205,4265.385
1783984329.6106,16:12:09.610,102,false,0.0,4206.282,4336.154,4239.615,4288.333,4357.564
1783984329.6184,16:12:09.618,103,false,0.0,4246.282,4392.436,4243.205,4237.308,4313.718
1783984329.6261,16:12:09.626,104,false,0.0,4269.103,4419.103,4240.513,4223.718,4293.974
1783984329.634,16:12:09.634,105,false,0.0,4262.564,4378.205,4220.769,4236.026,4365.769
1783984329.6418,16:12:09.641,106,false,0.0,4254.872,4347.436,4193.205,4254.872,4409.872
1783984329.6496,16:12:09.649,107,false,0.0,4252.692,4358.846,4187.308,4238.205,4316.538
1783984329.6573,16:12:09.657,108,false,0.0,4223.974,4374.359,4210.0,4169.872,4218.333
1783984329.6651,16:12:09.665,109,false,0.0,4168.974,4348.846,4228.205,4166.538,4231.026
1783984329.6729,16:12:09.672,110,false,0.0,4157.821,4289.872,4241.795,4208.718,4194.487
1783984329.6807,16:12:09.680,111,false,0.0,4171.026,4269.744,4261.923,4171.026,4103.333
1783984329.6884,16:12:09.688,112,false,0.0,4105.897,4276.41,4254.487,4164.359,4165.128
1783984329.6962,16:12:09.696,113,false,0.0,4051.923,4235.256,4235.897,4258.718,4244.744
1783984329.704,16:12:09.704,114,false,0.0,4146.282,4220.128,4265.769,4287.179,4128.333
1783984329.7119,16:12:09.711,115,false,0.0,4230.641,4301.538,4299.487,4245.769,4052.308
1783984329.7196,16:12:09.719,116,false,0.0,4173.59,4355.385,4275.128,4249.231,4196.154
1783984329.7274,16:12:09.727,117,false,0.0,4158.718,4332.308,4246.538,4259.231,4315.385
1783984329.7352,16:12:09.735,118,false,0.0,4257.308,4339.359,4253.846,4266.282,4271.538
1783984329.743,16:12:09.743,119,false,0.0,4303.462,4380.513,4253.846,4282.821,4224.359
1783984329.7509,16:12:09.750,120,false,0.0,4268.846,4401.923,4227.051,4231.154,4264.872
1783984329.7587,16:12:09.758,121,false,0.0,4236.026,4411.795,4198.974,4172.051,4321.923
1783984329.7665,16:12:09.766,122,false,0.0,4230.513,4399.103,4196.282,4203.462,4314.744
1783984329.7743,16:12:09.774,123,false,0.0,4265.641,4377.179,4217.436,4216.026,4252.051
1783984329.7822,16:12:09.782,124,false,0.0,4267.436,4370.385,4220.385,4180.897,4239.744
1783984329.7901,16:12:09.790,125,false,0.0,4168.59,4313.846,4204.872,4210.641,4298.462
1783984329.7979,16:12:09.797,126,false,0.0,4116.538,4241.923,4226.282,4231.667,4263.974
1783984329.8057,16:12:09.805,127,false,0.0,4173.846,4281.026,4267.692,4166.282,4097.051
1783984329.8136,16:12:09.813,0,false,0.0,4162.436,4330.897,4267.564,4153.077,4039.872
1783984329.8214,16:12:09.821,1,false,0.0,4079.231,4268.462,4249.872,4226.282,4178.333
1783984329.8292,16:12:09.829,2,false,0.0,4081.41,4233.077,4259.615,4260.385,4271.667
1783984329.837,16:12:09.837,3,false,0.0,4130.128,4285.128,4275.0,4258.974,4237.564
1783984329.8449,16:12:09.844,4,false,0.0,4158.718,4309.872,4274.487,4271.282,4240.385
1783984329.8527,16:12:09.852,5,false,0.0,4225.0,4339.872,4264.359,4259.231,4280.769
1783984329.8605,16:12:09.860,6,false,0.0,4296.154,4414.487,4243.846,4244.487,4286.154
1783984329.8684,16:12:09.868,7,false,0.0,4293.846,4420.256,4217.436,4275.0,4343.077
1783984329.8761,16:12:09.876,8,false,0.0,4265.128,4373.462,4200.128,4285.0,4422.564
1783984329.8839,16:12:09.883,9,false,0.0,4264.615,4390.385,4197.179,4228.077,4370.897
1783984329.8917,16:12:09.891,10,false,0.0,4266.538,4421.795,4200.0,4185.256,4274.872
1783984329.8995,16:12:09.899,11,false,0.0,4251.795,4391.667,4203.59,4207.179,4276.538
1783984329.9072,16:12:09.907,12,false,0.0,4242.436,4349.103,4217.436,4226.41,4263.718
1783984329.915,16:12:09.915,13,false,0.0,4230.0,4327.179,4237.179,4190.769,4193.205
1783984329.9228,16:12:09.922,14,false,0.0,4167.051,4292.692,4236.795,4157.179,4218.59
1783984329.9306,16:12:09.930,15,false,0.0,4105.385,4249.359,4231.795,4186.026,4268.077
1783984329.9383,16:12:09.938,16,false,0.0,4145.256,4252.308,4261.923,4229.103,4158.462
1783984329.9462,16:12:09.946,17,false,0.0,4186.154,4291.41,4296.154,4237.436,4080.256
1783984329.954,16:12:09.954,18,false,0.0,4115.897,4274.487,4285.128,4260.513,4225.769
1783984329.9618,16:12:09.961,19,false,0.0,4097.564,4237.308,4265.769,4302.308,4321.538
1783984329.9695,16:12:09.969,20,false,0.0,4213.077,4304.615,4275.641,4290.256,4219.103
1783984329.9773,16:12:09.977,21,false,0.0,4271.154,4387.179,4268.333,4264.872,4223.718
1783984329.9851,16:12:09.985,22,false,0.0,4244.615,4356.923,4221.282,4300.513,4393.974
1783984329.9929,16:12:09.992,23,false,0.0,4270.769,4341.667,4194.487,4318.974,4437.308
1783984330.0006,16:12:10.000,24,false,0.0,4304.744,4415.897,4207.308,4267.179,4350.641
1783984330.0084,16:12:10.008,25,false,0.0,4284.615,4448.59,4202.436,4227.179,4329.231
1783984330.0162,16:12:10.016,26,false,0.0,4275.256,4423.846,4177.949,4219.231,4349.103
1783984330.0241,16:12:10.024,27,false,0.0,4270.385,4400.513,4189.359,4210.769,4334.487
1783984330.0318,16:12:10.031,28,false,0.0,4225.256,4342.436,4216.923,4225.0,4317.051
1783984330.0396,16:12:10.039,29,false,0.0,4174.359,4271.282,4218.333,4241.41,4303.974
1783984330.0474,16:12:10.047,30,false,0.0,4157.179,4258.974,4233.205,4218.974,4255.769
1783984330.0552,16:12:10.055,31,false,0.0,4166.154,4291.795,4272.564,4202.949,4174.487
1783984330.0629,16:12:10.062,32,false,0.0,4148.333,4308.59,4280.769,4232.179,4156.795
1783984330.0707,16:12:10.070,33,false,0.0,4097.949,4257.051,4270.513,4277.564,4243.077
1783984330.0785,16:12:10.078,34,false,0.0,4117.308,4206.026,4283.205,4285.513,4267.821
1783984330.0863,16:12:10.086,35,false,0.0,4201.667,4281.667,4287.308,4236.795,4180.385
1783984330.0941,16:12:10.094,36,false,0.0,4217.692,4370.128,4261.41,4221.41,4199.487
1783984330.1019,16:12:10.101,37,false,0.0,4194.231,4327.692,4228.718,4291.923,4339.744
1783984330.1097,16:12:10.109,38,false,0.0,4230.128,4314.359,4200.128,4313.333,4375.513
1783984330.1175,16:12:10.117,39,false,0.0,4269.359,4413.077,4192.821,4240.385,4310.0
1783984330.1254,16:12:10.125,40,false,0.0,4269.359,4453.974,4203.59,4214.103,4285.385
1783984330.1332,16:12:10.133,41,false,0.0,4271.41,4418.846,4197.692,4233.462,4295.128
1783984330.141,16:12:10.141,42,false,0.0,4276.154,4406.154,4195.385,4203.59,4300.641
1783984330.1488,16:12:10.148,43,false,0.0,4268.205,4382.564,4212.308,4187.949,4308.59
1783984330.1567,16:12:10.156,44,false,0.0,4232.821,4320.641,4204.872,4230.385,4317.821
1783984330.1645,16:12:10.164,45,false,0.0,4179.872,4274.872,4205.128,4233.974,4302.821
1783984330.1724,16:12:10.172,46,false,0.0,4169.359,4282.692,4260.256,4180.641,4237.051
1783984330.1802,16:12:10.180,47,false,0.0,4170.769,4294.487,4291.667,4178.59,4200.897
1783984330.1881,16:12:10.188,48,false,0.0,4135.128,4223.846,4272.821,4263.205,4242.692
1783984330.1959,16:12:10.195,49,false,0.0,4151.667,4176.795,4282.436,4310.385,4208.59
1783984330.2037,16:12:10.203,50,false,0.0,4202.692,4294.615,4294.872,4245.128,4117.821
1783984330.2115,16:12:10.211,51,false,0.0,4167.821,4376.667,4257.436,4210.256,4202.949
1783984330.2194,16:12:10.219,52,false,0.0,4150.769,4290.128,4228.077,4287.308,4352.821
1783984330.2272,16:12:10.227,53,false,0.0,4234.872,4293.462,4223.333,4314.872,4333.846
1783984330.235,16:12:10.235,54,false,0.0,4270.256,4426.538,4203.974,4245.128,4284.872
1783984330.2428,16:12:10.242,55,false,0.0,4254.103,4451.795,4193.846,4225.513,4316.154
1783984330.2508,16:12:10.250,56,false,0.0,4292.692,4413.974,4199.615,4250.641,4323.974
1783984330.2586,16:12:10.258,57,false,0.0,4304.359,4420.128,4189.487,4229.744,4339.231
1783984330.2664,16:12:10.266,58,false,0.0,4264.103,4380.641,4183.718,4215.256,4384.872
1783984330.2742,16:12:10.274,59,false,0.0,4260.897,4323.205,4200.0,4235.897,4362.436
1783984330.2819,16:12:10.281,60,false,0.0,4249.744,4326.154,4219.872,4220.256,4297.051
1783984330.2897,16:12:10.289,61,false,0.0,4205.513,4330.897,4248.974,4176.538,4250.128
1783984330.2975,16:12:10.297,62,false,0.0,4200.128,4316.795,4278.718,4174.744,4204.615
1783984330.3053,16:12:10.305,63,false,0.0,4203.077,4292.051,4283.205,4205.385,4159.103
1783984330.313,16:12:10.313,64,false,0.0,4174.744,4253.077,4279.231,4210.385,4117.821
1783984330.3208,16:12:10.320,65,false,0.0,4150.128,4258.846,4279.744,4199.103,4147.436
1783984330.3287,16:12:10.328,66,false,0.0,4142.821,4290.256,4269.231,4228.333,4255.897
1783984330.3365,16:12:10.336,67,false,0.0,4189.487,4296.667,4258.718,4270.385,4238.333
1783984330.3442,16:12:10.344,68,false,0.0,4264.744,4343.333,4250.513,4260.128,4143.59
1783984330.352,16:12:10.352,69,false,0.0,4251.538,4396.538,4218.462,4245.513,4273.205
1783984330.3598,16:12:10.359,70,false,0.0,4223.205,4375.769,4183.59,4271.538,4440.128
1783984330.3676,16:12:10.367,71,false,0.0,4305.897,4385.641,4185.128,4264.615,4344.744
1783984330.3753,16:12:10.375,72,false,0.0,4359.744,4438.077,4200.513,4219.359,4266.154
1783984330.3831,16:12:10.383,73,false,0.0,4316.026,4404.487,4199.359,4220.769,4358.846
1783984330.3909,16:12:10.390,74,false,0.0,4317.821,4361.154,4205.513,4243.077,4340.769
1783984330.3987,16:12:10.398,75,false,0.0,4320.769,4386.795,4229.103,4219.359,4244.359
1783984330.4065,16:12:10.406,76,false,0.0,4223.718,4362.179,4240.385,4188.462,4276.667
1783984330.4143,16:12:10.414,77,false,0.0,4161.154,4296.667,4246.667,4179.487,4293.077
1783984330.4221,16:12:10.422,78,false,0.0,4187.436,4298.59,4274.359,4165.769,4189.872
1783984330.4299,16:12:10.429,79,false,0.0,4168.077,4302.436,4288.462,4175.897,4150.897
1783984330.4376,16:12:10.437,80,false,0.0,4111.538,4249.872,4265.769,4233.077,4237.821
1783984330.4454,16:12:10.445,81,false,0.0,4133.974,4231.282,4258.205,4261.282,4265.897
1783984330.4532,16:12:10.453,82,false,0.0,4206.538,4285.897,4275.513,4224.744,4162.564
1783984330.461,16:12:10.461,83,false,0.0,4225.769,4336.538,4263.59,4217.051,4135.769
1783984330.4687,16:12:10.468,84,false,0.0,4197.692,4335.385,4225.0,4269.615,4286.282
1783984330.4765,16:12:10.476,85,false,0.0,4213.718,4338.077,4199.103,4283.718,4379.615
1783984330.4844,16:12:10.484,86,false,0.0,4289.744,4394.231,4191.795,4249.359,4314.615
1783984330.4922,16:12:10.492,87,false,0.0,4332.692,4441.282,4198.974,4253.974,4302.308
1783984330.5001,16:12:10.500,88,false,0.0,4306.41,4419.872,4203.718,4274.359,4395.641
1783984330.5079,16:12:10.507,89,false,0.0,4284.872,4383.333,4195.0,4250.641,4422.949
1783984330.5157,16:12:10.515,90,false,0.0,4298.077,4387.564,4206.923,4220.769,4344.103
1783984330.5235,16:12:10.523,91,false,0.0,4285.641,4397.821,4239.103,4202.308,4279.744
1783984330.5314,16:12:10.531,92,false,0.0,4234.615,4361.026,4250.897,4178.205,4281.795
1783984330.5392,16:12:10.539,93,false,0.0,4203.462,4303.718,4261.026,4177.949,4262.692
1783984330.547,16:12:10.547,94,false,0.0,4183.846,4281.538,4279.744,4192.564,4204.744
1783984330.5548,16:12:10.554,95,false,0.0,4131.41,4265.385,4262.692,4197.564,4222.436
1783984330.5628,16:12:10.562,96,false,0.0,4116.026,4231.667,4240.128,4228.205,4254.872
1783984330.5706,16:12:10.570,97,false,0.0,4191.154,4254.487,4265.641,4256.154,4160.0
1783984330.5784,16:12:10.578,98,false,0.0,4230.0,4320.128,4280.641,4232.564,4106.923
1783984330.5862,16:12:10.586,99,false,0.0,4170.513,4320.385,4242.564,4225.513,4238.718
1783984330.5941,16:12:10.594,100,false,0.0,4155.256,4299.744,4211.026,4249.103,4320.385
1783984330.6019,16:12:10.601,101,false,0.0,4229.615,4349.487,4212.308,4232.949,4227.692
1783984330.6097,16:12:10.609,102,false,0.0,4272.564,4403.718,4213.974,4225.897,4182.949
1783984330.6175,16:12:10.617,103,false,0.0,4265.513,4406.538,4206.795,4267.564,4298.718
1783984330.6254,16:12:10.625,104,false,0.0,4276.667,4399.487,4201.154,4266.282,4403.59
1783984330.6332,16:12:10.633,105,false,0.0,4291.41,4393.59,4212.308,4216.41,4360.513
1783984330.6411,16:12:10.641,106,false,0.0,4276.538,4387.051,4240.897,4196.41,4282.692
1783984330.6489,16:12:10.648,107,false,0.0,4240.0,4380.769,4253.205,4200.0,4293.718
1783984330.6568,16:12:10.656,108,false,0.0,4183.462,4342.436,4246.667,4202.949,4283.974
1783984330.6646,16:12:10.664,109,false,0.0,4121.282,4283.974,4254.103,4209.615,4211.538
1783984330.6724,16:12:10.672,110,false,0.0,4081.538,4239.231,4256.282,4212.692,4216.923
1783984330.6802,16:12:10.680,111,false,0.0,4071.923,4206.795,4238.718,4219.103,4212.692
1783984330.6879,16:12:10.687,112,false,0.0,4093.077,4223.846,4252.179,4220.0,4060.769
1783984330.6957,16:12:10.695,113,false,0.0,4113.846,4292.179,4283.59,4209.615,3992.179
1783984330.7035,16:12:10.703,114,false,0.0,4088.846,4312.692,4263.205,4233.974,4137.821
1783984330.7113,16:12:10.711,115,false,0.0,4065.385,4292.821,4226.282,4276.282,4245.769
1783984330.7191,16:12:10.719,116,false,0.0,4113.205,4322.821,4227.179,4278.59,4237.179
1783984330.7269,16:12:10.726,117,false,0.0,4182.821,4358.846,4221.154,4275.641,4259.872
1783984330.7347,16:12:10.734,118,false,0.0,4214.872,4369.615,4199.744,4273.077,4288.333
1783984330.7425,16:12:10.742,119,false,0.0,4227.949,4409.872,4213.333,4233.333,4281.154
1783984330.7502,16:12:10.750,120,false,0.0,4220.385,4414.487,4233.462,4229.744,4327.821
1783984330.758,16:12:10.758,121,false,0.0,4205.0,4349.359,4224.872,4276.41,4385.897
1783984330.7658,16:12:10.765,122,false,0.0,4233.333,4351.026,4227.179,4254.231,4337.436
1783984330.7736,16:12:10.773,123,false,0.0,4244.872,4397.564,4241.538,4187.692,4258.974
1783984330.7813,16:12:10.781,124,false,0.0,4173.333,4339.359,4238.846,4181.026,4250.0
1783984330.7892,16:12:10.789,125,false,0.0,4119.615,4267.179,4245.897,4190.0,4225.513
1783984330.797,16:12:10.797,126,false,0.0,4120.0,4288.333,4261.538,4183.462,4171.667
1783984330.8048,16:12:10.804,127,false,0.0,4081.282,4278.974,4245.256,4214.615,4208.846
1783984330.8125,16:12:10.812,0,false,0.0,4057.564,4230.897,4232.821,4247.564,4237.692
1783984330.8203,16:12:10.820,1,false,0.0,4121.795,4282.179,4263.718,4230.897,4113.974
1783984330.8281,16:12:10.828,2,false,0.0,4152.436,4351.282,4278.974,4219.872,4062.051
1783984330.8359,16:12:10.835,3,false,0.0,4117.179,4314.231,4246.41,4247.821,4226.667
1783984330.8438,16:12:10.843,4,false,0.0,4149.615,4291.154,4221.538,4263.718,4318.462
1783984330.8516,16:12:10.851,5,false,0.0,4239.231,4361.154,4225.513,4252.051,4234.615
1783984330.8594,16:12:10.859,6,false,0.0,4274.872,4407.179,4232.436,4254.231,4235.641
1783984330.8673,16:12:10.867,7,false,0.0,4262.179,4385.641,4236.41,4268.462,4357.179
1783984330.8752,16:12:10.875,8,false,0.0,4258.205,4364.615,4234.744,4254.231,4409.872
1783984330.883,16:12:10.883,9,false,0.0,4270.769,4371.154,4225.641,4217.179,4359.872
1783984330.8908,16:12:10.890,10,false,0.0,4267.308,4392.179,4224.103,4188.205,4297.051
1783984330.8986,16:12:10.898,11,false,0.0,4232.949,4391.026,4228.974,4176.41,4273.974
1783984330.9065,16:12:10.906,12,false,0.0,4206.667,4346.795,4233.974,4180.0,4254.103
1783984330.9143,16:12:10.914,13,false,0.0,4180.513,4305.256,4244.103,4185.897,4211.795
1783984330.9221,16:12:10.922,14,false,0.0,4115.641,4278.846,4242.692,4197.308,4224.231
1783984330.9299,16:12:10.929,15,false,0.0,4095.0,4247.051,4234.231,4226.282,4239.231
1783984330.9378,16:12:10.937,16,false,0.0,4161.795,4261.282,4258.333,4231.795,4120.0
1783984330.9457,16:12:10.945,17,false,0.0,4182.949,4311.795,4284.487,4213.846,4050.0
1783984330.9535,16:12:10.953,18,false,0.0,4135.128,4300.0,4257.821,4237.564,4202.051
1783984330.9613,16:12:10.961,19,false,0.0,4152.692,4273.718,4227.179,4258.846,4303.077
1783984330.9692,16:12:10.969,20,false,0.0,4232.564,4330.385,4239.359,4237.308,4215.0
1783984330.977,16:12:10.977,21,false,0.0,4271.154,4390.128,4246.026,4265.897,4218.077
1783984330.9848,16:12:10.984,22,false,0.0,4263.077,4378.846,4232.308,4313.59,4369.359
1783984330.9926,16:12:10.992,23,false,0.0,4259.744,4366.795,4235.641,4267.949,4425.256
1783984331.0003,16:12:11.000,24,false,0.0,4281.282,4400.641,4239.231,4207.564,4352.308
1783984331.0081,16:12:11.008,25,false,0.0,4296.923,4437.179,4217.308,4196.538,4304.872
1783984331.0159,16:12:11.015,26,false,0.0,4277.692,4419.487,4204.103,4182.436,4307.564
1783984331.0238,16:12:11.023,27,false,0.0,4256.026,4358.718,4220.385,4193.205,4270.641
1783984331.0315,16:12:11.031,28,false,0.0,4227.949,4328.077,4233.718,4215.385,4217.179
1783984331.0393,16:12:11.039,29,false,0.0,4155.641,4313.462,4227.949,4187.692,4248.718
1783984331.0471,16:12:11.047,30,false,0.0,4116.923,4260.897,4233.077,4184.359,4262.564
1783984331.0549,16:12:11.054,31,false,0.0,4163.59,4256.154,4261.667,4207.692,4135.641
1783984331.0628,16:12:11.062,32,false,0.0,4177.564,4320.128,4274.744,4185.897,4087.051
1783984331.0706,16:12:11.070,33,false,0.0,4125.256,4301.795,4254.744,4213.205,4242.692
1783984331.0784,16:12:11.078,34,false,0.0,4134.744,4236.154,4244.487,4280.769,4302.051
1783984331.0862,16:12:11.086,35,false,0.0,4223.205,4294.615,4264.872,4243.974,4181.923
1783984331.0941,16:12:11.094,36,false,0.0,4275.897,4389.231,4275.385,4213.077,4184.487
1783984331.102,16:12:11.102,37,false,0.0,4253.333,4377.436,4254.103,4290.0,4334.615
1783984331.1098,16:12:11.109,38,false,0.0,4235.769,4361.923,4232.051,4301.41,4393.846
1783984331.1176,16:12:11.117,39,false,0.0,4280.385,4419.359,4228.846,4219.872,4343.59
1783984331.1253,16:12:11.125,40,false,0.0,4313.846,4453.718,4222.308,4191.026,4308.077
1783984331.1331,16:12:11.133,41,false,0.0,4280.0,4427.308,4205.897,4195.769,4313.077
1783984331.1409,16:12:11.140,42,false,0.0,4258.333,4395.641,4205.128,4181.282,4306.154
1783984331.1487,16:12:11.148,43,false,0.0,4252.564,4367.179,4216.795,4182.949,4273.846
1783984331.1564,16:12:11.156,44,false,0.0,4184.487,4317.564,4216.41,4200.641,4274.103
1783984331.1642,16:12:11.164,45,false,0.0,4143.59,4274.744,4224.359,4206.538,4257.692
1783984331.172,16:12:11.172,46,false,0.0,4194.872,4287.692,4258.846,4183.333,4127.179
1783984331.1799,16:12:11.179,47,false,0.0,4189.231,4314.103,4273.462,4166.282,4060.513
1783984331.1876,16:12:11.187,48,false,0.0,4108.718,4278.974,4250.256,4224.231,4207.821
1783984331.1954,16:12:11.195,49,false,0.0,4103.59,4235.641,4242.949,4290.769,4314.487
1783984331.2032,16:12:11.203,50,false,0.0,4151.923,4261.026,4264.615,4274.615,4253.333
1783984331.211,16:12:11.211,51,false,0.0,4180.513,4305.769,4273.205,4251.282,4241.154
1783984331.2187,16:12:11.218,52,false,0.0,4231.923,4341.154,4262.179,4252.436,4273.333
1783984331.2265,16:12:11.226,53,false,0.0,4277.051,4402.051,4244.744,4230.897,4242.821
1783984331.2343,16:12:11.234,54,false,0.0,4268.59,4434.103,4218.718,4248.205,4304.103
1783984331.2421,16:12:11.242,55,false,0.0,4276.667,4403.077,4202.949,4285.769,4430.0
1783984331.25,16:12:11.250,56,false,0.0,4308.974,4400.897,4211.795,4228.205,4377.692
1783984331.2579,16:12:11.257,57,false,0.0,4295.769,4433.462,4214.872,4165.769,4275.0
1783984331.2657,16:12:11.265,58,false,0.0,4259.103,4398.59,4195.128,4210.769,4350.641
1783984331.2735,16:12:11.273,59,false,0.0,4244.359,4319.615,4185.769,4249.872,4408.974
1783984331.2814,16:12:11.281,60,false,0.0,4236.667,4300.513,4213.333,4202.564,4273.59
1783984331.2892,16:12:11.289,61,false,0.0,4210.513,4324.359,4253.846,4150.256,4159.615
1783984331.297,16:12:11.297,62,false,0.0,4152.949,4304.615,4264.359,4167.564,4210.769
1783984331.3048,16:12:11.304,63,false,0.0,4097.821,4238.846,4247.821,4233.333,4260.769
1783984331.3127,16:12:11.312,64,false,0.0,4103.718,4206.154,4250.641,4255.128,4189.359
1783984331.3205,16:12:11.320,65,false,0.0,4159.103,4250.0,4280.256,4224.615,4085.513
1783984331.3283,16:12:11.328,66,false,0.0,4203.59,4318.205,4294.615,4231.667,4077.564
1783984331.3362,16:12:11.336,67,false,0.0,4206.667,4345.256,4276.795,4250.769,4197.564
1783984331.3441,16:12:11.344,68,false,0.0,4198.077,4338.974,4246.026,4240.513,4339.359
1783984331.3519,16:12:11.351,69,false,0.0,4242.051,4341.026,4222.821,4282.949,4374.359
1783984331.3597,16:12:11.359,70,false,0.0,4309.615,4371.282,4218.333,4329.872,4337.949
1783984331.3675,16:12:11.367,71,false,0.0,4307.564,4421.026,4215.0,4264.231,4327.821
1783984331.3753,16:12:11.375,72,false,0.0,4275.641,4447.692,4193.205,4196.667,4323.077
1783984331.3831,16:12:11.383,73,false,0.0,4289.872,4421.154,4184.744,4214.359,4296.026
1783984331.3909,16:12:11.390,74,false,0.0,4292.436,4386.026,4209.231,4212.179,4277.949
1783984331.3987,16:12:11.398,75,false,0.0,4240.0,4378.077,4220.513,4185.128,4267.821
1783984331.4066,16:12:11.406,76,false,0.0,4173.846,4337.051,4209.487,4201.538,4268.974
1783984331.4145,16:12:11.414,77,false,0.0,4141.41,4260.0,4228.718,4215.769,4250.0
1783984331.4223,16:12:11.422,78,false,0.0,4176.026,4263.974,4270.256,4201.538,4133.59
1783984331.4301,16:12:11.430,79,false,0.0,4195.513,4326.282,4281.41,4202.436,4054.231
1783984331.4379,16:12:11.437,80,false,0.0,4111.667,4296.795,4271.026,4230.513,4183.718
1783984331.4457,16:12:11.445,81,false,0.0,4071.41,4235.128,4273.718,4267.564,4314.231
1783984331.4535,16:12:11.453,82,false,0.0,4162.564,4277.179,4277.821,4285.256,4275.385
1783984331.4613,16:12:11.461,83,false,0.0,4221.41,4333.077,4264.744,4279.487,4266.282
1783984331.469,16:12:11.469,84,false,0.0,4230.385,4343.59,4241.538,4273.462,4310.641
1783984331.4768,16:12:11.476,85,false,0.0,4278.59,4395.513,4218.974,4267.692,4282.308
1783984331.4847,16:12:11.484,86,false,0.0,4282.051,4429.872,4201.41,4281.282,4330.513
1783984331.4925,16:12:11.492,87,false,0.0,4256.282,4386.667,4189.744,4304.359,4440.256
1783984331.5002,16:12:11.500,88,false,0.0,4299.872,4393.59,4184.103,4248.718,4364.872
1783984331.508,16:12:11.508,89,false,0.0,4301.282,4439.487,4184.615,4163.59,4259.487
1783984331.5158,16:12:11.515,90,false,0.0,4237.692,4395.897,4188.974,4188.718,4326.026
1783984331.5236,16:12:11.523,91,false,0.0,4242.564,4336.795,4201.41,4238.59,4347.179
1783984331.5313,16:12:11.531,92,false,0.0,4239.359,4325.0,4228.077,4210.385,4279.103
1783984331.5391,16:12:11.539,93,false,0.0,4159.231,4274.359,4252.564,4213.718,4293.077
1783984331.5469,16:12:11.546,94,false,0.0,4134.872,4228.846,4261.667,4248.462,4261.923
1783984331.5547,16:12:11.554,95,false,0.0,4149.231,4270.256,4272.436,4215.897,4144.359
1783984331.5625,16:12:11.562,96,false,0.0,4107.692,4294.103,4283.333,4216.026,4182.308
1783984331.5703,16:12:11.570,97,false,0.0,4106.41,4245.256,4274.744,4292.308,4305.641
1783984331.5781,16:12:11.578,98,false,0.0,4185.897,4246.154,4264.615,4287.308,4268.333
1783984331.5859,16:12:11.585,99,false,0.0,4236.923,4336.795,4264.103,4215.641,4191.282
1783984331.5936,16:12:11.593,100,false,0.0,4242.564,4396.923,4243.077,4234.359,4263.205
1783984331.6014,16:12:11.601,101,false,0.0,4258.718,4373.333,4207.692,4302.179,4383.333
1783984331.6092,16:12:11.609,102,false,0.0,4291.026,4360.513,4194.103,4299.103,4406.538
1783984331.617,16:12:11.617,103,false,0.0,4317.179,4409.231,4193.974,4241.282,4343.205
1783984331.6249,16:12:11.624,104,false,0.0,4312.692,4443.59,4186.667,4194.872,4304.231
1783984331.6327,16:12:11.632,105,false,0.0,4284.487,4421.667,4182.308,4194.359,4343.333
1783984331.6406,16:12:11.640,106,false,0.0,4259.872,4383.974,4191.282,4228.077,4359.872
1783984331.6484,16:12:11.648,107,false,0.0,4229.103,4339.744,4210.641,4239.615,4311.667
1783984331.6563,16:12:11.656,108,false,0.0,4203.333,4285.0,4232.949,4217.949,4299.615
1783984331.6641,16:12:11.664,109,false,0.0,4214.359,4262.949,4256.923,4199.487,4280.641
1783984331.6719,16:12:11.671,110,false,0.0,4210.128,4288.333,4280.641,4185.513,4181.667
1783984331.6797,16:12:11.679,111,false,0.0,4155.897,4293.333,4281.667,4199.615,4177.051
1783984331.6876,16:12:11.687,112,false,0.0,4137.692,4240.641,4264.487,4263.59,4288.974
1783984331.6954,16:12:11.695,113,false,0.0,4182.949,4222.179,4269.744,4282.949,4256.41
1783984331.7032,16:12:11.703,114,false,0.0,4215.128,4306.538,4280.256,4223.718,4134.744
1783984331.711,16:12:11.711,115,false,0.0,4223.974,4381.795,4251.41,4215.0,4198.846
1783984331.719,16:12:11.719,116,false,0.0,4235.0,4354.872,4212.051,4269.487,4350.385
1783984331.7268,16:12:11.726,117,false,0.0,4242.949,4326.026,4192.949,4268.59,4376.282
1783984331.7346,16:12:11.734,118,false,0.0,4274.744,4374.872,4183.077,4234.359,4331.667
1783984331.7424,16:12:11.742,119,false,0.0,4316.538,4426.923,4184.744,4233.205,4309.487
1783984331.7503,16:12:11.750,120,false,0.0,4305.256,4424.744,4191.282,4222.179,4324.359
1783984331.7581,16:12:11.758,121,false,0.0,4280.256,4402.179,4191.41,4199.231,4359.744
1783984331.7659,16:12:11.765,122,false,0.0,4278.333,4381.923,4203.077,4218.077,4355.897
1783984331.7737,16:12:11.773,123,false,0.0,4238.59,4339.103,4218.846,4246.795,4325.513
1783984331.7814,16:12:11.781,124,false,0.0,4191.795,4285.897,4233.462,4220.897,4293.333
1783984331.7892,16:12:11.789,125,false,0.0,4187.436,4281.41,4271.282,4170.385,4220.128
1783984331.7971,16:12:11.797,126,false,0.0,4143.846,4282.436,4290.897,4188.205,4197.949
1783984331.8049,16:12:11.804,127,false,0.0,4089.231,4211.154,4263.333,4266.154,4270.385
1783984331.8126,16:12:11.812,0,false,0.0,4145.897,4176.795,4262.821,4277.179,4238.846
1783984331.8204,16:12:11.820,1,false,0.0,4228.333,4268.333,4286.154,4218.077,4135.769
1783984331.8282,16:12:11.828,2,false,0.0,4232.051,4335.128,4257.949,4225.641,4214.231
1783984331.836,16:12:11.836,3,false,0.0,4240.897,4311.795,4216.41,4286.795,4366.41
1783984331.8437,16:12:11.843,4,false,0.0,4290.897,4328.974,4204.359,4279.872,4373.59
1783984331.8515,16:12:11.851,5,false,0.0,4332.179,4395.769,4188.462,4233.846,4326.795
1783984331.8593,16:12:11.859,6,false,0.0,4363.333,4424.231,4184.103,4232.436,4324.615
1783984331.8671,16:12:11.867,7,false,0.0,4368.974,4414.103,4199.231,4241.923,4343.974
1783984331.8749,16:12:11.874,8,false,0.0,4348.205,4392.308,4194.103,4223.59,4379.615
1783984331.8827,16:12:11.882,9,false,0.0,4344.231,4377.179,4190.769,4228.205,4395.513
1783984331.8905,16:12:11.890,10,false,0.0,4328.462,4358.333,4212.821,4267.949,4379.872
1783984331.8983,16:12:11.898,11,false,0.0,4281.923,4308.718,4235.128,4251.667,4344.231
1783984331.906,16:12:11.906,12,false,0.0,4255.769,4287.179,4266.538,4173.59,4260.513
1783984331.9138,16:12:11.913,13,false,0.0,4239.103,4305.385,4292.436,4167.179,4196.026
1783984331.9216,16:12:11.921,14,false,0.0,4220.769,4268.462,4276.795,4231.026,4184.872
1783984331.9294,16:12:11.929,15,false,0.0,4229.359,4234.359,4264.231,4229.103,4124.487
1783984331.9371,16:12:11.937,16,false,0.0,4202.179,4288.974,4275.256,4205.128,4103.718
1783984331.9449,16:12:11.944,17,false,0.0,4132.308,4311.538,4259.359,4254.487,4222.564
1783984331.9528,16:12:11.952,18,false,0.0,4142.308,4283.718,4234.744,4276.667,4274.103
1783984331.9606,16:12:11.960,19,false,0.0,4215.128,4332.692,4231.282,4230.385,4225.385
1783984331.9683,16:12:11.968,20,false,0.0,4253.59,4400.897,4218.333,4229.872,4260.513
1783984331.9761,16:12:11.976,21,false,0.0,4284.615,4407.692,4203.974,4263.205,4287.821
1783984331.9839,16:12:11.983,22,false,0.0,4295.513,4400.897,4201.154,4250.641,4263.59
1783984331.9917,16:12:11.991,23,false,0.0,4254.872,4369.359,4186.026,4225.513,4331.923
1783984331.9996,16:12:11.999,24,false,0.0,4262.436,4344.359,4188.974,4207.821,4354.872
1783984332.0074,16:12:12.007,25,false,0.0,4312.308,4394.359,4225.385,4190.513,4273.205
1783984332.0152,16:12:12.015,26,false,0.0,4282.436,4388.59,4238.333,4218.846,4335.128
1783984332.023,16:12:12.023,27,false,0.0,4238.974,4277.179,4235.769,4257.692,4415.0
1783984332.031,16:12:12.031,28,false,0.0,4253.846,4251.795,4262.692,4219.744,4266.538
1783984332.0388,16:12:12.038,29,false,0.0,4207.436,4305.128,4277.564,4165.769,4162.949
1783984332.0466,16:12:12.046,30,false,0.0,4108.205,4265.0,4254.615,4199.359,4260.385
1783984332.0544,16:12:12.054,31,false,0.0,4110.256,4198.462,4242.821,4268.077,4280.897
1783984332.0623,16:12:12.062,32,false,0.0,4174.103,4232.436,4255.513,4267.308,4189.359
1783984332.0701,16:12:12.070,33,false,0.0,4181.154,4308.077,4262.051,4217.308,4164.744
1783984332.0779,16:12:12.077,34,false,0.0,4173.974,4345.0,4251.538,4220.256,4205.0
1783984332.0857,16:12:12.085,35,false,0.0,4203.718,4342.436,4227.308,4281.41,4281.923
1783984332.0936,16:12:12.093,36,false,0.0,4241.923,4340.0,4201.41,4295.769,4353.333
1783984332.1014,16:12:12.101,37,false,0.0,4288.077,4377.692,4194.359,4246.282,4317.821
1783984332.1093,16:12:12.109,38,false,0.0,4332.051,4418.462,4206.154,4225.641,4263.205
1783984332.1171,16:12:12.117,39,false,0.0,4339.872,4404.103,4218.59,4240.641,4307.564
1783984332.125,16:12:12.125,40,false,0.0,4343.205,4378.59,4227.308,4230.128,4330.128
1783984332.1328,16:12:12.132,41,false,0.0,4347.564,4388.974,4238.077,4209.487,4287.436
1783984332.1406,16:12:12.140,42,false,0.0,4288.718,4374.744,4242.564,4208.974,4317.692
1783984332.1484,16:12:12.148,43,false,0.0,4214.615,4313.974,4241.282,4206.923,4354.744
1783984332.1563,16:12:12.156,44,false,0.0,4210.128,4298.59,4254.231,4189.231,4259.231
1783984332.1641,16:12:12.164,45,false,0.0,4202.051,4332.692,4269.359,4170.641,4182.051
1783984332.1719,16:12:12.171,46,false,0.0,4157.436,4308.462,4258.846,4182.179,4231.667
1783984332.1798,16:12:12.179,47,false,0.0,4157.692,4249.231,4248.333,4233.205,4248.077
1783984332.1877,16:12:12.187,48,false,0.0,4164.359,4252.051,4256.795,4271.923,4227.308
1783984332.1955,16:12:12.195,49,false,0.0,4144.103,4281.026,4253.205,4260.897,4274.487
1783984332.2033,16:12:12.203,50,false,0.0,4192.692,4311.923,4239.487,4227.692,4263.846
1783984332.2111,16:12:12.211,51,false,0.0,4264.615,4380.256,4231.026,4214.615,4199.231
1783984332.2188,16:12:12.218,52,false,0.0,4265.385,4413.462,4207.692,4248.462,4276.538
1783984332.2266,16:12:12.226,53,false,0.0,4286.282,4388.205,4192.051,4288.59,4373.974
1783984332.2344,16:12:12.234,54,false,0.0,4334.231,4395.128,4216.026,4267.821,4352.692
1783984332.2422,16:12:12.242,55,false,0.0,4317.692,4396.667,4232.436,4230.0,4376.923
1783984332.2499,16:12:12.249,56,false,0.0,4309.103,4363.59,4226.026,4218.974,4396.026
1783984332.2578,16:12:12.257,57,false,0.0,4323.718,4388.846,4236.026,4185.256,4295.897
1783984332.2656,16:12:12.265,58,false,0.0,4266.282,4404.744,4242.949,4163.333,4289.359
1783984332.2734,16:12:12.273,59,false,0.0,4218.205,4333.205,4236.282,4189.872,4340.897
1783984332.2811,16:12:12.281,60,false,0.0,4241.667,4307.821,4252.436,4175.513,4219.872
1783984332.2889,16:12:12.288,61,false,0.0,4232.308,4326.41,4265.897,4149.103,4122.436
1783984332.2967,16:12:12.296,62,false,0.0,4191.41,4277.051,4249.487,4197.179,4184.231
1783984332.3045,16:12:12.304,63,false,0.0,4164.231,4249.744,4242.564,4228.846,4220.256
1783984332.3122,16:12:12.312,64,false,0.0,4134.103,4282.821,4248.462,4217.949,4237.692
1783984332.32,16:12:12.320,65,false,0.0,4163.205,4296.41,4249.231,4240.0,4240.641
1783984332.3278,16:12:12.327,66,false,0.0,4232.949,4331.795,4253.333,4254.231,4184.359
1783984332.3357,16:12:12.335,67,false,0.0,4235.128,4365.128,4240.769,4272.051,4282.949
1783984332.3434,16:12:12.343,68,false,0.0,4251.282,4333.846,4215.769,4320.641,4439.359
1783984332.3512,16:12:12.351,69,false,0.0,4328.846,4362.821,4222.949,4276.154,4334.615
1783984332.359,16:12:12.359,70,false,0.0,4328.205,4441.154,4240.0,4192.308,4257.179
1783984332.3668,16:12:12.366,71,false,0.0,4287.051,4412.308,4233.333,4222.179,4406.41
1783984332.3747,16:12:12.374,72,false,0.0,4318.974,4376.41,4229.103,4228.462,4399.359
1783984332.3825,16:12:12.382,73,false,0.0,4323.462,4419.359,4226.667,4156.667,4282.692
1783984332.3903,16:12:12.390,74,false,0.0,4265.128,4403.205,4218.59,4177.051,4335.128
1783984332.3981,16:12:12.398,75,false,0.0,4249.615,4348.333,4236.795,4209.359,4313.462
1783984332.406,16:12:12.406,76,false,0.0,4248.077,4343.59,4263.59,4149.744,4170.513
1783984332.4139,16:12:12.413,77,false,0.0,4191.667,4302.436,4258.205,4159.744,4189.744
1783984332.4217,16:12:12.421,78,false,0.0,4124.744,4230.897,4240.128,4231.923,4260.385
1783984332.4295,16:12:12.429,79,false,0.0,4110.385,4238.205,4238.333,4219.359,4218.718
1783984332.4374,16:12:12.437,80,false,0.0,4162.179,4293.846,4253.462,4197.308,4174.359
1783984332.4452,16:12:12.445,81,false,0.0,4210.385,4326.41,4267.949,4239.487,4180.641
1783984332.453,16:12:12.453,82,false,0.0,4197.564,4322.436,4255.128,4278.205,4267.308
1783984332.4608,16:12:12.460,83,false,0.0,4210.641,4311.154,4233.846,4280.513,4367.051
1783984332.4687,16:12:12.468,84,false,0.0,4285.256,4358.205,4237.051,4246.538,4304.487
1783984332.4765,16:12:12.476,85,false,0.0,4310.128,4431.026,4241.667,4216.795,4245.897
1783984332.4843,16:12:12.484,86,false,0.0,4289.103,4437.692,4237.179,4233.974,4365.641
1783984332.4922,16:12:12.492,87,false,0.0,4307.179,4417.692,4240.897,4232.692,4410.128
1783984332.5001,16:12:12.500,88,false,0.0,4312.564,4412.821,4226.923,4207.821,4343.974
1783984332.5079,16:12:12.507,89,false,0.0,4271.026,4372.051,4196.026,4226.667,4381.026
1783984332.5157,16:12:12.515,90,false,0.0,4248.077,4330.0,4202.821,4209.872,4367.308
1783984332.5235,16:12:12.523,91,false,0.0,4219.359,4334.487,4235.513,4140.385,4222.308
1783984332.5312,16:12:12.531,92,false,0.0,4146.282,4304.487,4240.769,4172.692,4198.077
1783984332.539,16:12:12.539,93,false,0.0,4124.103,4232.051,4233.333,4256.667,4231.282
1783984332.5468,16:12:12.546,94,false,0.0,4170.769,4243.077,4243.974,4228.077,4135.0
1783984332.5546,16:12:12.554,95,false,0.0,4150.641,4323.333,4256.282,4187.179,4106.154
1783984332.5623,16:12:12.562,96,false,0.0,4078.718,4316.923,4254.872,4251.41,4236.538
1783984332.5702,16:12:12.570,97,false,0.0,4110.128,4239.744,4252.692,4302.308,4290.385
1783984332.578,16:12:12.578,98,false,0.0,4203.718,4252.436,4255.128,4270.513,4233.718
1783984332.5858,16:12:12.585,99,false,0.0,4230.769,4343.59,4251.41,4252.692,4237.692
1783984332.5935,16:12:12.593,100,false,0.0,4242.051,4383.974,4239.744,4285.0,4312.564
1783984332.6013,16:12:12.601,101,false,0.0,4279.872,4375.513,4231.795,4302.564,4383.077
1783984332.6091,16:12:12.609,102,false,0.0,4287.308,4374.487,4231.026,4278.077,4413.333
1783984332.6169,16:12:12.616,103,false,0.0,4297.949,4391.282,4227.692,4238.333,4365.256
1783984332.6246,16:12:12.624,104,false,0.0,4317.821,4429.487,4214.359,4202.692,4301.538
1783984332.6324,16:12:12.632,105,false,0.0,4269.359,4433.333,4202.179,4188.333,4317.179
1783984332.6402,16:12:12.640,106,false,0.0,4214.359,4371.282,4209.872,4200.897,4312.436
1783984332.6481,16:12:12.648,107,false,0.0,4201.538,4327.051,4224.231,4204.872,4233.462
1783984332.6558,16:12:12.655,108,false,0.0,4140.769,4294.231,4224.615,4189.231,4225.641
1783984332.6636,16:12:12.663,109,false,0.0,4091.923,4226.282,4233.462,4186.923,4217.692
1783984332.6714,16:12:12.671,110,false,0.0,4136.538,4234.615,4262.051,4185.897,4060.0
1783984332.6792,16:12:12.679,111,false,0.0,4135.897,4300.641,4271.41,4182.564,4010.641
1783984332.6869,16:12:12.686,112,false,0.0,4083.077,4261.538,4255.385,4221.154,4206.026
1783984332.6947,16:12:12.694,113,false,0.0,4135.897,4222.949,4252.308,4256.923,4285.769
1783984332.7025,16:12:12.702,114,false,0.0,4226.667,4313.974,4267.179,4235.128,4170.513
1783984332.7103,16:12:12.710,115,false,0.0,4239.872,4374.103,4272.051,4243.718,4185.513
1783984332.7182,16:12:12.718,116,false,0.0,4241.154,4352.308,4252.692,4303.59,4334.872
1783984332.7261,16:12:12.726,117,false,0.0,4264.231,4370.0,4228.974,4300.513,4396.154
1783984332.7339,16:12:12.733,118,false,0.0,4292.949,4400.897,4227.051,4241.923,4364.872
1783984332.7417,16:12:12.741,119,false,0.0,4323.974,4409.359,4224.744,4210.128,4333.718
1783984332.7496,16:12:12.749,120,false,0.0,4303.077,4429.359,4200.128,4190.385,4330.897
1783984332.7574,16:12:12.757,121,false,0.0,4252.308,4412.692,4193.333,4179.872,4316.026
1783984332.7652,16:12:12.765,122,false,0.0,4232.821,4354.103,4212.179,4201.026,4268.974
1783984332.773,16:12:12.773,123,false,0.0,4185.513,4308.077,4212.179,4219.103,4267.821
1783984332.7809,16:12:12.780,124,false,0.0,4136.667,4270.641,4219.103,4211.282,4269.744
1783984332.7887,16:12:12.788,125,false,0.0,4167.436,4277.308,4261.667,4181.538,4162.692
1783984332.7965,16:12:12.796,126,false,0.0,4151.667,4309.615,4273.59,4169.103,4122.564
1783984332.8044,16:12:12.804,127,false,0.0,4065.128,4252.051,4244.744,4236.538,4253.077
1783984332.8123,16:12:12.812,0,false,0.0,4105.513,4200.0,4253.59,4297.949,4269.103
1783984332.8201,16:12:12.820,1,false,0.0,4218.077,4288.974,4288.462,4248.333,4126.154
1783984332.8279,16:12:12.827,2,false,0.0,4218.846,4356.41,4280.897,4219.872,4131.795
1783984332.8357,16:12:12.835,3,false,0.0,4198.333,4329.231,4249.359,4280.641,4286.154
1783984332.8436,16:12:12.843,4,false,0.0,4249.487,4366.923,4233.333,4280.897,4361.026
1783984332.8514,16:12:12.851,5,false,0.0,4292.051,4436.154,4222.564,4232.564,4338.718
1783984332.8592,16:12:12.859,6,false,0.0,4295.385,4428.462,4209.359,4245.0,4325.256
1783984332.867,16:12:12.867,7,false,0.0,4271.795,4412.179,4193.333,4254.744,4372.436
1783984332.875,16:12:12.875,8,false,0.0,4251.41,4401.795,4173.333,4233.205,4400.641
1783984332.8828,16:12:12.882,9,false,0.0,4272.308,4371.282,4173.077,4219.872,4313.333
1783984332.8906,16:12:12.890,10,false,0.0,4253.718,4368.718,4200.897,4183.974,4243.077
1783984332.8984,16:12:12.898,11,false,0.0,4178.846,4352.564,4228.462,4158.974,4269.487
1783984332.9063,16:12:12.906,12,false,0.0,4176.667,4298.974,4248.846,4167.949,4203.846
1783984332.9141,16:12:12.914,13,false,0.0,4188.462,4290.897,4266.41,4147.436,4107.308
1783984332.9219,16:12:12.921,14,false,0.0,4112.051,4281.667,4262.436,4178.462,4211.41
1783984332.9297,16:12:12.929,15,false,0.0,4101.667,4235.385,4252.949,4285.128,4293.077
1783984332.9376,16:12:12.937,16,false,0.0,4199.872,4277.949,4276.795,4268.462,4143.333
1783984332.9454,16:12:12.945,17,false,0.0,4226.923,4360.641,4298.974,4178.59,4086.667
1783984332.9533,16:12:12.953,18,false,0.0,4192.436,4341.538,4271.154,4226.154,4263.974
1783984332.9611,16:12:12.961,19,false,0.0,4217.436,4325.769,4234.872,4280.641,4353.077
1783984332.9688,16:12:12.968,20,false,0.0,4272.949,4391.795,4231.154,4227.179,4277.051
1783984332.9766,16:12:12.976,21,false,0.0,4299.615,4423.59,4226.667,4227.949,4276.154
1783984332.9844,16:12:12.984,22,false,0.0,4284.487,4401.282,4199.872,4279.103,4382.564
1783984332.9922,16:12:12.992,23,false,0.0,4259.103,4386.026,4176.795,4255.0,4418.846
1783984332.9999,16:12:12.999,24,false,0.0,4280.128,4379.231,4173.974,4206.026,4343.462
1783984333.0077,16:12:13.007,25,false,0.0,4290.897,4384.872,4188.462,4180.256,4288.59
1783984333.0155,16:12:13.015,26,false,0.0,4231.538,4371.795,4207.692,4166.795,4297.949
1783984333.0233,16:12:13.023,27,false,0.0,4190.0,4314.487,4222.436,4179.359,4272.821
1783984333.0311,16:12:13.031,28,false,0.0,4179.103,4278.846,4243.205,4190.513,4234.487
1783984333.0389,16:12:13.038,29,false,0.0,4128.462,4262.179,4260.385,4209.744,4263.974
1783984333.0467,16:12:13.046,30,false,0.0,4109.359,4230.128,4257.436,4251.026,4235.128
1783984333.0545,16:12:13.054,31,false,0.0,4161.795,4263.974,4269.615,4225.385,4093.718
1783984333.0622,16:12:13.062,32,false,0.0,4177.436,4333.59,4298.59,4176.538,4074.872
1783984333.07,16:12:13.070,33,false,0.0,4153.718,4310.641,4283.077,4226.923,4229.872
1783984333.0778,16:12:13.077,34,false,0.0,4190.0,4286.41,4245.128,4267.179,4301.795
1783984333.0856,16:12:13.085,35,false,0.0,4272.949,4359.872,4243.718,4227.179,4242.692
1783984333.0933,16:12:13.093,36,false,0.0,4311.795,4406.154,4235.897,4232.821,4247.821
1783984333.1011,16:12:13.101,37,false,0.0,4281.282,4387.308,4197.564,4262.564,4348.974
1783984333.109,16:12:13.109,38,false,0.0,4257.051,4393.59,4182.308,4239.231,4406.282
1783984333.1168,16:12:13.116,39,false,0.0,4290.0,4409.615,4187.564,4220.897,4355.513
1783984333.1247,16:12:13.124,40,false,0.0,4303.718,4412.179,4187.179,4201.538,4282.949
1783984333.1325,16:12:13.132,41,false,0.0,4266.026,4416.282,4195.513,4172.821,4279.615
1783984333.1403,16:12:13.140,42,false,0.0,4254.615,4383.333,4210.0,4190.385,4283.077
1783984333.1481,16:12:13.148,43,false,0.0,4245.385,4325.641,4228.205,4187.949,4241.282
1783984333.156,16:12:13.156,44,false,0.0,4180.256,4289.231,4251.41,4155.769,4245.641
1783984333.1638,16:12:13.163,45,false,0.0,4146.538,4259.359,4258.974,4193.077,4253.333
1783984333.1716,16:12:13.171,46,false,0.0,4176.538,4262.821,4271.667,4215.128,4141.41
1783984333.1794,16:12:13.179,47,false,0.0,4168.846,4304.487,4298.205,4181.026,4089.103
1783984333.1874,16:12:13.187,48,false,0.0,4130.769,4285.385,4281.795,4233.718,4231.41
1783984333.1952,16:12:13.195,49,false,0.0,4156.154,4244.744,4247.821,4290.256,4295.128
1783984333.203,16:12:13.203,50,false,0.0,4228.59,4310.897,4255.769,4222.692,4188.718
1783984333.2108,16:12:13.210,51,false,0.0,4265.256,4394.487,4245.769,4202.051,4204.231
1783984333.2187,16:12:13.218,52,false,0.0,4248.205,4381.41,4198.333,4270.385,4355.897
1783984333.2265,16:12:13.226,53,false,0.0,4240.897,4371.795,4187.564,4258.59,4392.308
1783984333.2343,16:12:13.234,54,false,0.0,4278.974,4425.256,4194.872,4204.615,4326.026
1783984333.2421,16:12:13.242,55,false,0.0,4291.154,4449.872,4180.128,4196.923,4303.077
1783984333.25,16:12:13.250,56,false,0.0,4245.256,4416.282,4178.462,4184.359,4320.128
1783984333.2578,16:12:13.257,57,false,0.0,4225.385,4379.744,4193.718,4176.923,4315.513
1783984333.2657,16:12:13.265,58,false,0.0,4233.462,4362.436,4215.513,4185.897,4259.103
1783984333.2735,16:12:13.273,59,false,0.0,4188.333,4341.282,4254.872,4168.846,4201.795
1783984333.2812,16:12:13.281,60,false,0.0,4125.128,4291.282,4276.923,4177.692,4225.897
1783984333.289,16:12:13.289,61,false,0.0,4117.436,4228.718,4265.897,4225.769,4263.333
1783984333.2968,16:12:13.296,62,false,0.0,4144.231,4208.462,4265.897,4227.179,4213.974
1783984333.3046,16:12:13.304,63,false,0.0,4175.385,4254.231,4281.538,4205.769,4158.846
1783984333.3123,16:12:13.312,64,false,0.0,4194.359,4309.487,4280.513,4233.718,4202.179
1783984333.3201,16:12:13.320,65,false,0.0,4185.513,4306.41,4254.487,4272.692,4299.103
1783984333.3279,16:12:13.327,66,false,0.0,4194.231,4295.769,4224.872,4265.641,4331.667
1783984333.3357,16:12:13.335,67,false,0.0,4240.769,4363.974,4218.462,4230.256,4267.821
1783984333.3435,16:12:13.343,68,false,0.0,4260.769,4436.923,4212.821,4231.923,4248.077
1783984333.3513,16:12:13.351,69,false,0.0,4247.308,4411.538,4186.282,4273.077,4346.795
1783984333.3591,16:12:13.359,70,false,0.0,4251.538,4360.897,4180.513,4255.897,4379.744
1783984333.3669,16:12:13.366,71,false,0.0,4263.333,4371.538,4194.231,4178.205,4275.897
1783984333.3746,16:12:13.374,72,false,0.0,4256.923,4402.179,4189.359,4152.821,4241.282
1783984333.3824,16:12:13.382,73,false,0.0,4237.949,4400.0,4200.641,4180.769,4311.154
1783984333.3902,16:12:13.390,74,false,0.0,4211.026,4354.103,4238.462,4202.179,4317.436
1783984333.398,16:12:13.398,75,false,0.0,4181.538,4287.308,4253.205,4224.103,4277.692
1783984333.4057,16:12:13.405,76,false,0.0,4156.41,4241.923,4258.205,4234.615,4278.846
1783984333.4135,16:12:13.413,77,false,0.0,4146.667,4228.846,4274.872,4218.462,4235.641
1783984333.4214,16:12:13.421,78,false,0.0,4156.026,4254.744,4280.0,4207.564,4138.59
1783984333.4292,16:12:13.429,79,false,0.0,4147.949,4299.744,4276.282,4224.744,4158.462
1783984333.4369,16:12:13.436,80,false,0.0,4125.513,4290.256,4261.795,4272.949,4285.0
1783984333.4447,16:12:13.444,81,false,0.0,4149.487,4272.308,4235.385,4293.462,4296.795
1783984333.4525,16:12:13.452,82,false,0.0,4197.821,4350.513,4233.718,4238.974,4207.436
1783984333.4603,16:12:13.460,83,false,0.0,4219.744,4427.692,4230.897,4230.385,4240.769
1783984333.468,16:12:13.468,84,false,0.0,4245.513,4402.821,4190.769,4310.641,4366.41
1783984333.4758,16:12:13.475,85,false,0.0,4276.282,4372.949,4177.436,4306.282,4383.333
1783984333.4836,16:12:13.483,86,false,0.0,4283.462,4388.718,4202.179,4217.436,4310.513
1783984333.4915,16:12:13.491,87,false,0.0,4284.487,4405.385,4197.949,4199.231,4288.59
1783984333.4992,16:12:13.499,88,false,0.0,4267.949,4413.205,4194.103,4219.103,4325.769
1783984333.507,16:12:13.507,89,false,0.0,4234.359,4385.769,4230.385,4218.59,4328.077
1783984333.5148,16:12:13.514,90,false,0.0,4222.436,4337.821,4256.41,4220.385,4258.462
1783984333.5226,16:12:13.522,91,false,0.0,4196.667,4327.308,4263.333,4199.231,4212.436
1783984333.5305,16:12:13.530,92,false,0.0,4145.769,4300.641,4277.692,4200.128,4250.0
1783984333.5383,16:12:13.538,93,false,0.0,4134.103,4233.59,4270.897,4257.949,4272.436
1783984333.5461,16:12:13.546,94,false,0.0,4144.359,4227.308,4243.333,4245.897,4229.487
1783984333.5539,16:12:13.553,95,false,0.0,4148.333,4282.436,4244.872,4183.59,4191.667
1783984333.5618,16:12:13.561,96,false,0.0,4153.462,4311.538,4261.667,4224.744,4201.923
1783984333.5697,16:12:13.569,97,false,0.0,4123.205,4299.103,4244.231,4291.282,4262.692
1783984333.5775,16:12:13.577,98,false,0.0,4123.59,4291.282,4213.333,4266.282,4300.641
1783984333.5853,16:12:13.585,99,false,0.0,4223.974,4352.179,4206.538,4230.897,4245.385
1783984333.5932,16:12:13.593,100,false,0.0,4273.077,4427.436,4204.744,4245.769,4241.282
1783984333.601,16:12:13.601,101,false,0.0,4241.154,4387.564,4198.718,4272.821,4361.667
1783984333.6088,16:12:13.608,102,false,0.0,4290.641,4335.641,4212.821,4263.718,4387.179
1783984333.6166,16:12:13.616,103,false,0.0,4337.179,4399.615,4227.949,4207.564,4297.308
1783984333.6245,16:12:13.624,104,false,0.0,4261.667,4417.051,4220.769,4187.179,4309.487
1783984333.6323,16:12:13.632,105,false,0.0,4210.897,4328.077,4225.769,4226.154,4361.795
1783984333.6401,16:12:13.640,106,false,0.0,4220.0,4298.718,4250.385,4211.026,4297.179
1783984333.648,16:12:13.648,107,false,0.0,4175.897,4309.231,4261.154,4153.462,4220.256
1783984333.6557,16:12:13.655,108,false,0.0,4121.538,4272.564,4260.769,4167.821,4226.667
1783984333.6635,16:12:13.663,109,false,0.0,4113.333,4249.744,4256.41,4220.128,4252.179
1783984333.6713,16:12:13.671,110,false,0.0,4115.769,4235.513,4242.949,4248.333,4253.846
1783984333.6791,16:12:13.679,111,false,0.0,4128.077,4218.462,4244.103,4269.359,4227.308
1783984333.687,16:12:13.687,112,false,0.0,4141.538,4279.615,4256.923,4257.821,4190.897
1783984333.6948,16:12:13.694,113,false,0.0,4139.744,4353.718,4243.718,4231.41,4214.231
1783984333.7026,16:12:13.702,114,false,0.0,4162.564,4331.154,4220.0,4271.538,4304.103
1783984333.7104,16:12:13.710,115,false,0.0,4226.154,4310.513,4214.103,4314.872,4342.564
1783984333.7181,16:12:13.718,116,false,0.0,4281.026,4373.333,4206.41,4265.641,4292.179
1783984333.726,16:12:13.726,117,false,0.0,4284.359,4419.872,4199.359,4209.487,4290.256
1783984333.7338,16:12:13.733,118,false,0.0,4266.667,4393.205,4217.564,4211.923,4360.256
1783984333.7416,16:12:13.741,119,false,0.0,4281.282,4370.769,4234.615,4199.231,4351.795
1783984333.7493,16:12:13.749,120,false,0.0,4282.051,4391.41,4228.974,4172.436,4290.385
1783984333.7571,16:12:13.757,121,false,0.0,4224.872,4380.256,4230.641,4191.154,4305.769
1783984333.7649,16:12:13.764,122,false,0.0,4185.0,4308.718,4243.59,4216.538,4318.333
1783984333.7727,16:12:13.772,123,false,0.0,4180.769,4263.846,4238.974,4213.974,4255.897
1783984333.7804,16:12:13.780,124,false,0.0,4155.513,4277.436,4232.564,4201.795,4197.949
1783984333.7882,16:12:13.788,125,false,0.0,4129.615,4289.103,4251.026,4176.282,4161.026
1783984333.796,16:12:13.796,126,false,0.0,4107.051,4276.795,4261.795,4182.179,4170.128
1783984333.8039,16:12:13.803,127,false,0.0,4080.128,4254.487,4243.718,4252.949,4257.179
1783984333.8116,16:12:13.811,0,false,0.0,4125.385,4258.718,4236.41,4280.0,4270.256
1783984333.8194,16:12:13.819,1,false,0.0,4207.179,4331.154,4249.487,4228.205,4185.0
1783984333.8272,16:12:13.827,2,false,0.0,4214.359,4392.179,4239.872,4234.359,4228.333
1783984333.835,16:12:13.835,3,false,0.0,4215.513,4361.41,4210.513,4304.615,4372.179
1783984333.8427,16:12:13.842,4,false,0.0,4269.359,4345.513,4210.256,4305.769,4389.231
1783984333.8505,16:12:13.850,5,false,0.0,4294.615,4405.385,4233.205,4239.487,4326.795
1783984333.8583,16:12:13.858,6,false,0.0,4288.205,4432.821,4234.872,4198.846,4326.795
1783984333.8661,16:12:13.866,7,false,0.0,4284.359,4408.718,4222.821,4197.821,4349.744
1783984333.874,16:12:13.874,8,false,0.0,4262.051,4397.692,4227.821,4191.923,4330.128
1783984333.8819,16:12:13.881,9,false,0.0,4244.231,4384.359,4236.923,4165.385,4274.231
1783984333.8897,16:12:13.889,10,false,0.0,4219.359,4355.513,4235.0,4161.923,4235.769
1783984333.8975,16:12:13.897,11,false,0.0,4150.385,4319.744,4236.41,4197.436,4253.59
1783984333.9054,16:12:13.905,12,false,0.0,4111.026,4264.615,4238.59,4212.436,4261.026
1783984333.9132,16:12:13.913,13,false,0.0,4129.359,4237.308,4237.564,4197.436,4195.256
1783984333.921,16:12:13.921,14,false,0.0,4133.077,4281.538,4255.641,4198.59,4108.974
1783984333.9288,16:12:13.928,15,false,0.0,4123.846,4321.41,4276.282,4210.769,4089.872
1783984333.9367,16:12:13.936,16,false,0.0,4120.256,4296.282,4254.231,4226.923,4176.795
1783984333.9445,16:12:13.944,17,false,0.0,4133.077,4277.179,4221.667,4246.538,4264.615
1783984333.9523,16:12:13.952,18,false,0.0,4213.462,4337.564,4231.795,4237.308,4216.026
1783984333.9602,16:12:13.960,19,false,0.0,4283.974,4413.205,4249.359,4228.205,4174.231
1783984333.9681,16:12:13.968,20,false,0.0,4247.308,4406.41,4238.59,4255.385,4312.308
1783984333.9759,16:12:13.975,21,false,0.0,4226.154,4373.59,4234.231,4256.154,4427.821
1783984333.9837,16:12:13.983,22,false,0.0,4283.59,4406.026,4240.769,4209.744,4352.692
1783984333.9915,16:12:13.991,23,false,0.0,4290.641,4433.718,4224.487,4175.256,4275.256
1783984333.9994,16:12:13.999,24,false,0.0,4252.179,4398.077,4208.333,4170.641,4289.359
1783984334.0072,16:12:14.007,25,false,0.0,4246.923,4373.59,4223.974,4187.308,4265.897
1783984334.015,16:12:14.015,26,false,0.0,4211.667,4366.026,4237.949,4195.256,4218.846
1783984334.0228,16:12:14.022,27,false,0.0,4136.026,4316.282,4230.0,4175.641,4246.282
1783984334.0307,16:12:14.030,28,false,0.0,4120.256,4268.205,4235.385,4179.744,4249.872
1783984334.0386,16:12:14.038,29,false,0.0,4152.179,4274.487,4262.308,4188.462,4122.692
1783984334.0464,16:12:14.046,30,false,0.0,4134.487,4293.205,4269.487,4160.256,4042.821
1783984334.0542,16:12:14.054,31,false,0.0,4075.256,4278.974,4247.051,4190.641,4157.051
1783984334.0621,16:12:14.062,32,false,0.0,4081.795,4256.026,4236.667,4263.205,4231.923
1783984334.0699,16:12:14.069,33,false,0.0,4180.0,4288.205,4257.564,4247.821,4130.897
1783984334.0777,16:12:14.077,34,false,0.0,4254.359,4366.154,4273.077,4232.692,4127.436
1783984334.0855,16:12:14.085,35,false,0.0,4239.103,4393.974,4256.795,4280.641,4296.923
1783984334.0932,16:12:14.093,36,false,0.0,4223.59,4373.846,4235.385,4266.41,4378.077
1783984334.101,16:12:14.101,37,false,0.0,4268.59,4403.462,4233.59,4229.103,4340.256
1783984334.1088,16:12:14.108,38,false,0.0,4304.744,4460.256,4231.923,4234.615,4324.103
1783984334.1167,16:12:14.116,39,false,0.0,4283.846,4458.59,4219.231,4194.487,4316.923
1783984334.1244,16:12:14.124,40,false,0.0,4252.179,4421.282,4216.154,4172.436,4298.846
1783984334.1322,16:12:14.132,41,false,0.0,4226.154,4383.846,4220.128,4228.462,4296.282
1783984334.14,16:12:14.140,42,false,0.0,4171.154,4322.949,4211.795,4227.179,4289.487
1783984334.1478,16:12:14.147,43,false,0.0,4133.333,4273.718,4220.256,4190.385,4246.41
1783984334.1555,16:12:14.155,44,false,0.0,4157.692,4298.59,4262.564,4205.256,4151.538
1783984334.1633,16:12:14.163,45,false,0.0,4142.949,4331.154,4277.436,4202.692,4108.077
1783984334.1711,16:12:14.171,46,false,0.0,4065.0,4277.436,4245.897,4217.308,4210.769
1783984334.1789,16:12:14.178,47,false,0.0,4080.256,4219.359,4241.026,4274.744,4255.769
1783984334.1867,16:12:14.186,48,false,0.0,4186.538,4269.872,4275.897,4256.41,4123.846
1783984334.1945,16:12:14.194,49,false,0.0,4221.795,4349.359,4288.59,4233.333,4101.282
1783984334.2023,16:12:14.202,50,false,0.0,4190.769,4360.128,4270.128,4290.256,4268.59
1783984334.2101,16:12:14.210,51,false,0.0,4188.333,4366.795,4248.333,4285.769,4341.282
1783984334.2178,16:12:14.217,52,false,0.0,4221.026,4414.487,4234.231,4237.821,4288.462
1783984334.2256,16:12:14.225,53,false,0.0,4258.974,4440.128,4231.538,4260.385,4300.256
1783984334.2334,16:12:14.233,54,false,0.0,4255.256,4416.667,4213.846,4261.154,4373.333
1783984334.2412,16:12:14.241,55,false,0.0,4219.231,4379.103,4175.769,4220.513,4383.59
1783984334.2491,16:12:14.249,56,false,0.0,4223.462,4367.692,4176.282,4211.154,4295.641
1783984334.2569,16:12:14.256,57,false,0.0,4224.103,4382.821,4212.436,4193.59,4221.923
1783984334.2648,16:12:14.264,58,false,0.0,4181.154,4360.641,4222.821,4192.949,4241.923
1783984334.2726,16:12:14.272,59,false,0.0,4191.538,4295.256,4232.949,4224.359,4213.333
1783984334.2805,16:12:14.280,60,false,0.0,4204.359,4276.41,4265.0,4182.436,4106.026
1783984334.2883,16:12:14.288,61,false,0.0,4100.641,4292.949,4261.026,4147.564,4143.974
1783984334.2961,16:12:14.296,62,false,0.0,4032.436,4262.564,4239.231,4243.846,4288.077
1783984334.3039,16:12:14.303,63,false,0.0,4106.026,4238.205,4261.538,4320.769,4281.667
1783984334.3118,16:12:14.311,64,false,0.0,4155.641,4287.821,4285.513,4270.769,4187.436
1783984334.3196,16:12:14.319,65,false,0.0,4148.974,4346.795,4273.59,4205.0,4181.795
1783984334.3274,16:12:14.327,66,false,0.0,4196.667,4370.897,4255.769,4205.513,4224.872
1783984334.3352,16:12:14.335,67,false,0.0,4239.103,4383.462,4232.949,4266.923,4291.026
1783984334.3432,16:12:14.343,68,false,0.0,4227.436,4387.821,4211.026,4305.0,4377.821
1783984334.351,16:12:14.351,69,false,0.0,4248.59,4404.103,4213.333,4241.667,4367.179
1783984334.3588,16:12:14.358,70,false,0.0,4282.949,4436.41,4208.462,4181.282,4283.59
1783984334.3666,16:12:14.366,71,false,0.0,4262.179,4420.641,4191.026,4205.128,4281.667
1783984334.3745,16:12:14.374,72,false,0.0,4245.256,4369.359,4206.282,4206.41,4295.897
1783984334.3823,16:12:14.382,73,false,0.0,4239.487,4356.282,4224.487,4170.513,4238.462
1783984334.3901,16:12:14.390,74,false,0.0,4169.231,4332.821,4211.923,4186.026,4242.564
1783984334.3979,16:12:14.397,75,false,0.0,4113.333,4272.051,4226.026,4208.718,4270.0
1783984334.4058,16:12:14.405,76,false,0.0,4157.564,4281.923,4270.256,4185.641,4146.923
1783984334.4136,16:12:14.413,77,false,0.0,4163.077,4329.487,4276.026,4179.872,4076.923
1783984334.4215,16:12:14.421,78,false,0.0,4072.692,4281.795,4259.231,4219.231,4232.692
1783984334.4293,16:12:14.429,79,false,0.0,4067.436,4233.59,4271.538,4247.179,4282.436
1783984334.4372,16:12:14.437,80,false,0.0,4175.385,4302.308,4289.231,4235.128,4121.282
1783984334.445,16:12:14.445,81,false,0.0,4232.051,4366.026,4277.949,4236.026,4125.0
1783984334.4528,16:12:14.452,82,false,0.0,4229.744,4355.385,4244.615,4274.615,4319.359
1783984334.4606,16:12:14.460,83,false,0.0,4258.718,4368.59,4213.205,4282.051,4401.41
1783984334.4685,16:12:14.468,84,false,0.0,4311.154,4414.872,4206.282,4250.0,4377.051
1783984334.4763,16:12:14.476,85,false,0.0,4347.564,4435.769,4210.0,4242.949,4376.41
1783984334.4841,16:12:14.484,86,false,0.0,4339.615,4435.769,4198.59,4232.564,4379.359
1783984334.4919,16:12:14.491,87,false,0.0,4297.564,4424.231,4190.256,4203.077,4380.897
1783984334.4997,16:12:14.499,88,false,0.0,4278.974,4401.154,4195.641,4228.59,4383.846
1783984334.5075,16:12:14.507,89,false,0.0,4261.41,4363.59,4195.385,4271.41,4359.744
1783984334.5153,16:12:14.515,90,false,0.0,4207.821,4312.051,4208.333,4236.795,4309.872
1783984334.5231,16:12:14.523,91,false,0.0,4177.821,4298.718,4246.667,4175.513,4238.333
1783984334.5308,16:12:14.530,92,false,0.0,4168.462,4309.359,4265.769,4179.872,4191.923
1783984334.5386,16:12:14.538,93,false,0.0,4151.154,4256.41,4267.308,4248.077,4189.359
1783984334.5464,16:12:14.546,94,false,0.0,4181.026,4221.538,4289.103,4295.128,4146.41
1783984334.5542,16:12:14.554,95,false,0.0,4195.641,4297.949,4295.513,4260.897,4132.949
1783984334.5619,16:12:14.561,96,false,0.0,4139.615,4336.923,4259.487,4242.436,4272.692
1783984334.5697,16:12:14.569,97,false,0.0,4171.667,4290.128,4235.256,4306.026,4375.385
1783984334.5776,16:12:14.577,98,false,0.0,4276.795,4319.103,4234.487,4314.103,4317.436
1783984334.5854,16:12:14.585,99,false,0.0,4272.308,4397.821,4217.436,4243.974,4307.051
1783984334.5931,16:12:14.593,100,false,0.0,4253.333,4408.718,4199.744,4248.205,4371.667
1783984334.6009,16:12:14.600,101,false,0.0,4297.051,4394.615,4199.615,4289.359,4378.59
1783984334.6087,16:12:14.608,102,false,0.0,4272.436,4377.436,4187.821,4254.872,4380.641
1783984334.6165,16:12:14.616,103,false,0.0,4247.821,4363.333,4173.205,4212.692,4365.128
1783984334.6242,16:12:14.624,104,false,0.0,4283.718,4398.718,4187.179,4211.282,4290.897
1783984334.632,16:12:14.632,105,false,0.0,4232.821,4392.692,4208.205,4209.103,4293.205
1783984334.6398,16:12:14.639,106,false,0.0,4169.231,4308.718,4222.692,4210.385,4327.308
1783984334.6476,16:12:14.647,107,false,0.0,4188.718,4278.846,4249.231,4219.744,4264.872
1783984334.6556,16:12:14.655,108,false,0.0,4134.872,4256.795,4270.769,4231.026,4243.333
1783984334.6634,16:12:14.663,109,false,0.0,4082.692,4185.128,4272.821,4245.897,4245.897
1783984334.6712,16:12:14.671,110,false,0.0,4177.564,4237.692,4283.974,4238.205,4121.667
1783984334.679,16:12:14.679,111,false,0.0,4208.59,4355.641,4293.205,4232.821,4086.667
1783984334.6869,16:12:14.686,112,false,0.0,4135.641,4319.615,4265.256,4265.385,4246.282
1783984334.6947,16:12:14.694,113,false,0.0,4179.103,4280.897,4235.513,4274.103,4307.692
1783984334.7025,16:12:14.702,114,false,0.0,4268.59,4379.615,4233.462,4253.205,4252.308
1783984334.7103,16:12:14.710,115,false,0.0,4274.103,4426.538,4219.103,4269.487,4282.692
1783984334.7182,16:12:14.718,116,false,0.0,4263.462,4384.615,4189.359,4285.769,4348.462
1783984334.726,16:12:14.726,117,false,0.0,4250.641,4381.154,4181.41,4264.615,4376.026
1783984334.7339,16:12:14.733,118,false,0.0,4257.564,4394.103,4185.256,4238.077,4364.231
1783984334.7417,16:12:14.741,119,false,0.0,4296.026,4397.051,4185.897,4202.821,4303.462
1783984334.7496,16:12:14.749,120,false,0.0,4248.462,4384.359,4193.718,4205.385,4314.744
1783984334.7574,16:12:14.757,121,false,0.0,4176.282,4311.795,4207.692,4273.59,4383.077
1783984334.7652,16:12:14.765,122,false,0.0,4209.231,4268.59,4237.051,4262.564,4302.436
1783984334.773,16:12:14.773,123,false,0.0,4206.923,4312.564,4277.179,4166.538,4183.59
1783984334.7809,16:12:14.780,124,false,0.0,4140.128,4304.615,4286.026,4183.077,4203.333
1783984334.7887,16:12:14.788,125,false,0.0,4171.667,4242.436,4277.051,4264.359,4178.59
1783984334.7965,16:12:14.796,126,false,0.0,4212.179,4264.359,4285.256,4245.0,4091.41
1783984334.8043,16:12:14.804,127,false,0.0,4149.487,4309.359,4272.821,4223.59,4167.564
1783984334.8121,16:12:14.812,0,false,0.0,4126.538,4291.667,4238.846,4271.154,4283.974
1783984334.8199,16:12:14.819,1,false,0.0,4201.667,4314.103,4239.615,4273.846,4238.846
1783984334.8277,16:12:14.827,2,false,0.0,4270.256,4397.179,4243.205,4252.051,4213.333
1783984334.8355,16:12:14.835,3,false,0.0,4277.564,4417.179,4208.462,4285.385,4345.897
1783984334.8432,16:12:14.843,4,false,0.0,4262.821,4381.154,4189.103,4299.231,4446.795
1783984334.851,16:12:14.851,5,false,0.0,4302.564,4395.769,4199.487,4259.359,4392.692
1783984334.8588,16:12:14.858,6,false,0.0,4346.154,4435.641,4195.256,4241.795,4331.923
1783984334.8666,16:12:14.866,7,false,0.0,4288.077,4416.667,4189.872,4248.59,4370.385
1783984334.8745,16:12:14.874,8,false,0.0,4235.128,4375.769,4210.128,4231.795,4378.333
1783984334.8824,16:12:14.882,9,false,0.0,4258.462,4371.154,4239.744,4202.051,4288.462
1783984334.8902,16:12:14.890,10,false,0.0,4214.744,4349.487,4265.256,4192.436,4249.103
1783984334.898,16:12:14.898,11,false,0.0,4129.487,4278.59,4277.308,4216.795,4292.564
1783984334.9057,16:12:14.905,12,false,0.0,4137.949,4230.0,4268.462,4257.564,4281.667
1783984334.9135,16:12:14.913,13,false,0.0,4168.846,4243.077,4260.256,4267.436,4205.256
1783984334.9213,16:12:14.921,14,false,0.0,4171.026,4286.923,4271.795,4242.949,4145.769
1783984334.9291,16:12:14.929,15,false,0.0,4183.205,4328.077,4279.231,4243.59,4159.615
1783984334.9368,16:12:14.936,16,false,0.0,4171.538,4330.256,4255.256,4275.513,4272.179
1783984334.9446,16:12:14.944,17,false,0.0,4183.462,4318.59,4221.538,4268.333,4344.231
1783984334.9524,16:12:14.952,18,false,0.0,4265.128,4374.872,4213.333,4226.923,4258.462
1783984334.9603,16:12:14.960,19,false,0.0,4294.615,4447.692,4214.744,4236.795,4220.513
1783984334.968,16:12:14.968,20,false,0.0,4268.462,4428.077,4200.0,4280.385,4356.282
1783984334.9758,16:12:14.975,21,false,0.0,4296.795,4387.179,4188.333,4266.41,4429.359
1783984334.9836,16:12:14.983,22,false,0.0,4325.256,4409.872,4195.128,4216.154,4352.051
1783984334.9914,16:12:14.991,23,false,0.0,4300.769,4423.205,4210.0,4198.974,4309.231
1783984334.9993,16:12:14.999,24,false,0.0,4268.462,4387.949,4231.538,4192.692,4316.538
1783984335.0071,16:12:15.007,25,false,0.0,4225.769,4347.308,4257.821,4172.436,4275.128
1783984335.0149,16:12:15.014,26,false,0.0,4186.538,4313.462,4273.718,4176.41,4243.974
1783984335.0227,16:12:15.022,27,false,0.0,4171.41,4287.436,4266.795,4211.538,4275.0
1783984335.0306,16:12:15.030,28,false,0.0,4157.308,4266.923,4248.974,4225.385,4258.846
1783984335.0385,16:12:15.038,29,false,0.0,4172.821,4263.333,4259.103,4198.59,4153.077
1783984335.0463,16:12:15.046,30,false,0.0,4187.564,4297.692,4282.308,4198.333,4128.462
1783984335.0541,16:12:15.054,31,false,0.0,4132.821,4304.487,4254.231,4256.667,4253.974
1783984335.062,16:12:15.062,32,false,0.0,4131.282,4279.487,4215.769,4272.949,4308.59
1783984335.0698,16:12:15.069,33,false,0.0,4236.667,4344.359,4235.769,4216.795,4217.051
1783984335.0776,16:12:15.077,34,false,0.0,4268.846,4429.103,4240.128,4225.128,4211.538
1783984335.0854,16:12:15.085,35,false,0.0,4223.333,4391.41,4193.59,4300.385,4332.179
1783984335.0933,16:12:15.093,36,false,0.0,4240.641,4355.769,4191.538,4290.0,4372.564
1783984335.1011,16:12:15.101,37,false,0.0,4282.051,4409.615,4224.231,4216.154,4311.41
1783984335.1089,16:12:15.108,38,false,0.0,4294.103,4438.077,4218.59,4192.949,4279.231
1783984335.1168,16:12:15.116,39,false,0.0,4300.513,4424.103,4223.077,4193.333,4292.051
1783984335.1247,16:12:15.124,40,false,0.0,4274.103,4395.641,4262.051,4181.41,4272.436
1783984335.1325,16:12:15.132,41,false,0.0,4216.923,4340.513,4271.154,4179.744,4218.846
1783984335.1403,16:12:15.140,42,false,0.0,4156.282,4311.026,4253.077,4181.154,4231.667
1783984335.1481,16:12:15.148,43,false,0.0,4113.077,4297.949,4252.179,4188.205,4261.154
1783984335.156,16:12:15.156,44,false,0.0,4142.436,4276.154,4266.282,4202.308,4153.974
1783984335.1638,16:12:15.163,45,false,0.0,4173.333,4299.744,4272.179,4211.026,4085.385
1783984335.1716,16:12:15.171,46,false,0.0,4103.718,4298.718,4252.308,4238.846,4237.564
1783984335.1794,16:12:15.179,47,false,0.0,4076.538,4253.333,4234.359,4257.692,4298.974
1783984335.1873,16:12:15.187,48,false,0.0,4169.231,4325.256,4253.333,4222.692,4139.487
1783984335.1952,16:12:15.195,49,false,0.0,4206.667,4421.154,4257.308,4224.359,4138.462
1783984335.203,16:12:15.203,50,false,0.0,4183.077,4369.359,4213.59,4296.795,4323.974
1783984335.2108,16:12:15.210,51,false,0.0,4232.821,4350.897,4193.718,4308.718,4366.41
1783984335.2187,16:12:15.218,52,false,0.0,4297.436,4433.462,4217.436,4243.077,4301.923
1783984335.2265,16:12:15.226,53,false,0.0,4301.41,4437.564,4228.718,4199.872,4306.026
1783984335.2343,16:12:15.234,54,false,0.0,4285.769,4408.462,4228.718,4185.769,4334.487
1783984335.2421,16:12:15.242,55,false,0.0,4262.308,4415.385,4239.615,4190.385,4346.282
1783984335.2498,16:12:15.249,56,false,0.0,4229.487,4360.128,4239.231,4228.462,4339.103
1783984335.2576,16:12:15.257,57,false,0.0,4201.026,4291.795,4224.359,4246.923,4295.769
1783984335.2654,16:12:15.265,58,false,0.0,4174.487,4294.872,4226.538,4201.154,4238.974
1783984335.2733,16:12:15.273,59,false,0.0,4143.462,4302.564,4250.513,4147.436,4186.923
1783984335.281,16:12:15.281,60,false,0.0,4087.308,4278.846,4257.436,4175.769,4194.103
1783984335.2888,16:12:15.288,61,false,0.0,4050.513,4237.436,4235.897,4266.026,4262.436
1783984335.2966,16:12:15.296,62,false,0.0,4108.59,4229.231,4237.692,4277.692,4225.385
1783984335.3044,16:12:15.304,63,false,0.0,4170.897,4314.103,4267.692,4208.333,4114.359
1783984335.3121,16:12:15.312,64,false,0.0,4158.205,4374.487,4259.872,4224.231,4176.795
1783984335.3199,16:12:15.319,65,false,0.0,4179.872,4326.795,4223.718,4303.846,4330.513
1783984335.3277,16:12:15.327,66,false,0.0,4241.795,4324.359,4217.179,4290.385,4345.769
1783984335.3355,16:12:15.335,67,false,0.0,4252.949,4398.718,4223.205,4237.821,4305.128
1783984335.3432,16:12:15.343,68,false,0.0,4267.692,4421.154,4224.872,4241.923,4317.821
1783984335.3511,16:12:15.351,69,false,0.0,4294.359,4416.282,4239.103,4228.718,4336.41
1783984335.3589,16:12:15.358,70,false,0.0,4269.872,4430.256,4240.897,4181.795,4341.154
1783984335.3667,16:12:15.366,71,false,0.0,4250.897,4416.026,4223.974,4177.821,4319.487
1783984335.3744,16:12:15.374,72,false,0.0,4235.769,4378.718,4223.205,4197.692,4296.538
1783984335.3822,16:12:15.382,73,false,0.0,4171.923,4333.718,4227.308,4201.923,4320.897
1783984335.39,16:12:15.390,74,false,0.0,4151.026,4285.128,4223.718,4215.0,4305.256
1783984335.3978,16:12:15.397,75,false,0.0,4175.128,4275.513,4237.436,4219.359,4211.795
1783984335.4057,16:12:15.405,76,false,0.0,4134.744,4297.436,4257.436,4181.154,4161.026
1783984335.4135,16:12:15.413,77,false,0.0,4085.256,4305.513,4260.0,4164.744,4182.949
1783984335.4213,16:12:15.421,78,false,0.0,4087.308,4279.744,4251.667,4222.949,4223.846
1783984335.4292,16:12:15.429,79,false,0.0,4105.897,4246.154,4242.179,4265.385,4235.0
1783984335.4371,16:12:15.437,80,false,0.0,4174.744,4297.564,4247.051,4232.436,4180.0
1783984335.4449,16:12:15.444,81,false,0.0,4255.0,4401.026,4256.795,4231.282,4186.154
1783984335.4527,16:12:15.452,82,false,0.0,4243.59,4390.641,4236.795,4297.179,4334.231
1783984335.4605,16:12:15.460,83,false,0.0,4231.41,4342.436,4218.974,4303.077,4409.103
1783984335.4684,16:12:15.468,84,false,0.0,4293.718,4414.359,4239.872,4234.615,4338.718
1783984335.4762,16:12:15.476,85,false,0.0,4310.256,4464.872,4245.641,4199.231,4325.0
1783984335.484,16:12:15.484,86,false,0.0,4256.282,4406.795,4219.615,4204.359,4366.923
1783984335.4918,16:12:15.491,87,false,0.0,4228.59,4382.821,4212.949,4207.692,4343.333
1783984335.4997,16:12:15.499,88,false,0.0,4220.256,4372.564,4217.949,4220.385,4311.41
1783984335.5076,16:12:15.507,89,false,0.0,4197.179,4303.077,4213.333,4235.513,4298.205
1783984335.5154,16:12:15.515,90,false,0.0,4181.282,4285.385,4223.974,4219.744,4241.923
1783984335.5232,16:12:15.523,91,false,0.0,4149.231,4325.0,4242.436,4182.051,4194.359
1783984335.5309,16:12:15.530,92,false,0.0,4083.974,4293.846,4243.718,4190.769,4234.231
1783984335.5387,16:12:15.538,93,false,0.0,4070.513,4223.59,4244.231,4271.538,4284.615
1783984335.5465,16:12:15.546,94,false,0.0,4140.385,4230.769,4257.051,4305.897,4228.205
1783984335.5543,16:12:15.554,95,false,0.0,4178.718,4307.436,4264.615,4235.0,4147.179
1783984335.562,16:12:15.562,96,false,0.0,4149.103,4351.026,4252.949,4216.667,4206.41
1783984335.5698,16:12:15.569,97,false,0.0,4159.872,4322.821,4237.692,4308.077,4328.974
1783984335.5777,16:12:15.577,98,false,0.0,4224.615,4320.769,4242.564,4338.462,4342.051
1783984335.5855,16:12:15.585,99,false,0.0,4264.359,4404.744,4251.41,4263.846,4294.744
1783984335.5932,16:12:15.593,100,false,0.0,4276.667,4468.077,4239.615,4214.744,4302.051
1783984335.601,16:12:15.601,101,false,0.0,4275.385,4441.282,4225.513,4218.462,4341.282
1783984335.6088,16:12:15.608,102,false,0.0,4258.333,4406.667,4218.718,4212.949,4357.051
1783984335.6166,16:12:15.616,103,false,0.0,4248.205,4397.179,4200.897,4206.154,4345.0
1783984335.6243,16:12:15.624,104,false,0.0,4227.051,4351.154,4185.641,4227.436,4323.974
1783984335.6321,16:12:15.632,105,false,0.0,4186.795,4297.692,4202.051,4229.615,4285.0
1783984335.6399,16:12:15.639,106,false,0.0,4170.897,4308.077,4239.359,4187.821,4226.795
1783984335.6477,16:12:15.647,107,false,0.0,4157.179,4305.769,4262.051,4197.821,4215.0
1783984335.6555,16:12:15.655,108,false,0.0,4135.0,4229.872,4259.359,4274.231,4222.564
1783984335.6633,16:12:15.663,109,false,0.0,4157.179,4219.231,4256.923,4268.974,4142.692
1783984335.6711,16:12:15.671,110,false,0.0,4167.949,4315.769,4263.333,4193.974,4090.256
1783984335.6789,16:12:15.678,111,false,0.0,4126.154,4341.282,4259.615,4216.667,4197.051
1783984335.6866,16:12:15.686,112,false,0.0,4147.436,4286.41,4259.359,4296.667,4300.256
1783984335.6944,16:12:15.694,113,false,0.0,4234.231,4317.564,4269.487,4292.179,4301.538
1783984335.7022,16:12:15.702,114,false,0.0,4274.744,4409.615,4255.513,4242.051,4313.077
1783984335.71,16:12:15.710,115,false,0.0,4297.179,4444.744,4230.641,4227.308,4333.846
1783984335.7179,16:12:15.717,116,false,0.0,4324.487,4442.051,4226.795,4233.333,4333.462
1783984335.7257,16:12:15.725,117,false,0.0,4297.564,4430.256,4213.846,4227.949,4364.231
1783984335.7336,16:12:15.733,118,false,0.0,4270.128,4394.872,4192.436,4217.179,4375.641
1783984335.7414,16:12:15.741,119,false,0.0,4283.846,4362.436,4194.872,4225.256,4317.564
1783984335.7491,16:12:15.749,120,false,0.0,4253.205,4353.333,4197.949,4219.103,4257.308
1783984335.7569,16:12:15.756,121,false,0.0,4181.923,4350.128,4203.333,4166.026,4229.231
1783984335.7647,16:12:15.764,122,false,0.0,4159.103,4328.718,4238.718,4153.974,4206.154
1783984335.7725,16:12:15.772,123,false,0.0,4174.615,4288.205,4261.154,4203.974,4141.923
1783984335.7804,16:12:15.780,124,false,0.0,4165.0,4272.821,4253.205,4201.41,4072.564
1783984335.7882,16:12:15.788,125,false,0.0,4117.692,4281.154,4255.0,4185.256,4148.462
1783984335.796,16:12:15.796,126,false,0.0,4102.564,4265.513,4260.256,4243.718,4268.59
1783984335.8038,16:12:15.803,127,false,0.0,4182.436,4277.564,4268.077,4262.308,4176.282
1783984335.8118,16:12:15.811,0,false,0.0,4255.513,4350.769,4287.564,4214.359,4081.154
1783984335.8196,16:12:15.819,1,false,0.0,4224.103,4377.692,4268.59,4236.282,4252.051
1783984335.8274,16:12:15.827,2,false,0.0,4214.744,4357.308,4221.795,4279.872,4382.308
1783984335.8352,16:12:15.835,3,false,0.0,4290.769,4394.103,4219.487,4243.59,4291.667
1783984335.8431,16:12:15.843,4,false,0.0,4303.974,4431.795,4225.641,4216.026,4288.462
1783984335.8509,16:12:15.850,5,false,0.0,4246.667,4398.077,4193.718,4239.872,4398.718
1783984335.8587,16:12:15.858,6,false,0.0,4253.077,4369.615,4175.769,4238.974,4374.487
1783984335.8665,16:12:15.866,7,false,0.0,4282.051,4378.846,4187.051,4208.718,4276.795
1783984335.8744,16:12:15.874,8,false,0.0,4235.769,4376.41,4196.667,4182.308,4257.692
1783984335.8822,16:12:15.882,9,false,0.0,4177.308,4348.333,4218.205,4166.154,4253.462
1783984335.8901,16:12:15.890,10,false,0.0,4176.538,4308.974,4250.769,4166.41,4189.872
1783984335.8979,16:12:15.897,11,false,0.0,4170.256,4287.564,4263.974,4173.718,4143.462
1783984335.9057,16:12:15.905,12,false,0.0,4114.359,4276.41,4256.795,4200.128,4205.641
1783984335.9135,16:12:15.913,13,false,0.0,4102.179,4244.231,4252.949,4248.974,4253.077
1783984335.9213,16:12:15.921,14,false,0.0,4178.846,4256.282,4274.487,4247.821,4138.205
1783984335.9291,16:12:15.929,15,false,0.0,4220.897,4331.026,4297.949,4207.949,4076.026
1783984335.937,16:12:15.937,16,false,0.0,4185.769,4351.795,4275.256,4231.667,4246.538
1783984335.9448,16:12:15.944,17,false,0.0,4199.615,4336.026,4236.154,4269.103,4363.846
1783984335.9526,16:12:15.952,18,false,0.0,4272.436,4387.051,4230.513,4239.487,4284.615
1783984335.9604,16:12:15.960,19,false,0.0,4289.359,4431.538,4223.462,4238.205,4284.487
1783984335.9684,16:12:15.968,20,false,0.0,4255.256,4405.897,4194.231,4287.308,4401.41
1783984335.9762,16:12:15.976,21,false,0.0,4252.436,4383.974,4178.333,4264.615,4403.077
1783984335.984,16:12:15.984,22,false,0.0,4277.051,4385.641,4175.897,4191.41,4310.256
1783984335.9918,16:12:15.991,23,false,0.0,4266.154,4385.0,4180.256,4172.821,4276.795
1783984335.9995,16:12:15.999,24,false,0.0,4216.667,4376.795,4203.718,4181.667,4277.821
1783984336.0073,16:12:16.007,25,false,0.0,4193.718,4342.821,4228.846,4172.179,4240.256
1783984336.0151,16:12:16.015,26,false,0.0,4185.385,4301.026,4246.154,4176.026,4210.513
1783984336.0229,16:12:16.022,27,false,0.0,4127.821,4268.462,4258.077,4209.231,4243.974
1783984336.0306,16:12:16.030,28,false,0.0,4093.718,4238.205,4255.0,4239.872,4252.051
1783984336.0384,16:12:16.038,29,false,0.0,4145.128,4261.795,4265.256,4235.0,4166.154
1783984336.0463,16:12:16.046,30,false,0.0,4163.974,4316.923,4294.359,4225.256,4145.385
1783984336.0541,16:12:16.054,31,false,0.0,4127.051,4295.513,4280.256,4262.179,4266.538
1783984336.0618,16:12:16.061,32,false,0.0,4160.0,4271.795,4242.692,4283.333,4315.641
1783984336.0696,16:12:16.069,33,false,0.0,4235.385,4351.538,4241.41,4234.103,4243.846
1783984336.0774,16:12:16.077,34,false,0.0,4248.333,4412.179,4227.564,4223.974,4278.077
1783984336.0852,16:12:16.085,35,false,0.0,4238.205,4382.308,4187.821,4286.41,4405.128
1783984336.0929,16:12:16.092,36,false,0.0,4260.385,4367.051,4185.897,4280.128,4396.538
1783984336.1007,16:12:16.100,37,false,0.0,4276.026,4386.667,4192.692,4198.077,4283.846
1783984336.1085,16:12:16.108,38,false,0.0,4248.205,4382.564,4176.41,4164.359,4252.436
1783984336.1163,16:12:16.116,39,false,0.0,4212.051,4358.462,4190.385,4178.077,4270.0
1783984336.1243,16:12:16.124,40,false,0.0,4217.436,4341.41,4225.641,4183.333,4218.846
1783984336.1321,16:12:16.132,41,false,0.0,4217.179,4331.154,4240.641,4186.538,4182.051
1783984336.1399,16:12:16.139,42,false,0.0,4153.205,4285.128,4251.282,4191.41,4252.692
1783984336.1477,16:12:16.147,43,false,0.0,4114.103,4220.897,4262.051,4193.462,4264.231
1783984336.1556,16:12:16.155,44,false,0.0,4158.718,4250.897,4277.436,4193.205,4118.077
1783984336.1634,16:12:16.163,45,false,0.0,4170.0,4324.615,4299.744,4198.974,4069.487
1783984336.1712,16:12:16.171,46,false,0.0,4114.359,4288.974,4282.179,4231.795,4223.462
1783984336.179,16:12:16.179,47,false,0.0,4120.769,4252.308,4244.744,4252.179,4288.718
1783984336.1869,16:12:16.186,48,false,0.0,4202.564,4339.231,4248.718,4226.154,4198.59
1783984336.1947,16:12:16.194,49,false,0.0,4237.436,4385.513,4241.154,4232.692,4222.436
1783984336.2026,16:12:16.202,50,false,0.0,4208.077,4332.821,4195.128,4278.846,4360.641
1783984336.2104,16:12:16.210,51,false,0.0,4215.641,4343.718,4183.974,4262.564,4385.641
1783984336.2183,16:12:16.218,52,false,0.0,4275.641,4409.615,4196.154,4216.795,4313.846
1783984336.2261,16:12:16.226,53,false,0.0,4289.615,4416.923,4182.564,4223.077,4307.308
1783984336.2339,16:12:16.233,54,false,0.0,4243.462,4377.308,4177.051,4240.128,4367.564
1783984336.2417,16:12:16.241,55,false,0.0,4225.769,4326.923,4192.179,4237.949,4371.667
1783984336.2496,16:12:16.249,56,false,0.0,4231.154,4301.154,4213.462,4214.744,4279.744
1783984336.2574,16:12:16.257,57,false,0.0,4193.462,4329.615,4249.359,4163.205,4209.872
1783984336.2652,16:12:16.265,58,false,0.0,4153.718,4335.0,4275.513,4157.821,4213.077
1783984336.2731,16:12:16.273,59,false,0.0,4164.872,4281.282,4278.077,4213.333,4163.077
1783984336.281,16:12:16.281,60,false,0.0,4167.692,4261.667,4282.179,4229.359,4082.949
1783984336.2888,16:12:16.288,61,false,0.0,4111.026,4277.179,4279.103,4220.0,4149.872
1783984336.2966,16:12:16.296,62,false,0.0,4073.974,4258.718,4265.769,4240.897,4255.0
1783984336.3044,16:12:16.304,63,false,0.0,4142.436,4270.0,4265.0,4240.897,4195.256
1783984336.3123,16:12:16.312,64,false,0.0,4228.718,4349.359,4254.231,4237.308,4162.949
1783984336.3201,16:12:16.320,65,false,0.0,4218.59,4379.872,4216.538,4281.667,4337.821
1783984336.3279,16:12:16.327,66,false,0.0,4210.385,4348.205,4187.179,4296.538,4447.436
1783984336.3357,16:12:16.335,67,false,0.0,4288.077,4381.282,4182.949,4246.923,4339.103
1783984336.3436,16:12:16.343,68,false,0.0,4320.128,4446.923,4189.872,4211.026,4284.615
1783984336.3515,16:12:16.351,69,false,0.0,4275.641,4426.923,4191.026,4207.564,4364.615
1783984336.3593,16:12:16.359,70,false,0.0,4271.41,4380.385,4188.59,4207.949,4372.692
1783984336.3671,16:12:16.367,71,false,0.0,4267.179,4367.308,4205.128,4219.872,4332.949
1783984336.3748,16:12:16.374,72,false,0.0,4216.282,4318.718,4232.692,4237.051,4348.846
1783984336.3826,16:12:16.382,73,false,0.0,4208.333,4266.667,4250.128,4217.436,4300.385
1783984336.3904,16:12:16.390,74,false,0.0,4202.949,4281.282,4271.154,4166.026,4199.487
1783984336.3982,16:12:16.398,75,false,0.0,4127.308,4272.692,4282.692,4176.282,4229.615
1783984336.4059,16:12:16.405,76,false,0.0,4100.513,4212.051,4264.487,4262.179,4302.564
1783984336.4137,16:12:16.413,77,false,0.0,4164.872,4216.282,4262.436,4279.359,4236.41
1783984336.4215,16:12:16.421,78,false,0.0,4206.538,4285.128,4281.795,4211.154,4144.872
1783984336.4294,16:12:16.429,79,false,0.0,4208.333,4325.769,4264.103,4216.667,4180.769
1783984336.4371,16:12:16.437,80,false,0.0,4203.59,4334.231,4222.692,4277.308,4283.077
1783984336.4449,16:12:16.444,81,false,0.0,4204.487,4352.821,4202.308,4266.41,4346.923
1783984336.4527,16:12:16.452,82,false,0.0,4262.692,4402.949,4197.821,4242.308,4336.282
1783984336.4605,16:12:16.460,83,false,0.0,4332.692,4448.718,4203.333,4262.692,4309.872
1783984336.4684,16:12:16.468,84,false,0.0,4311.282,4422.051,4204.359,4253.077,4368.462
1783984336.4762,16:12:16.476,85,false,0.0,4272.308,4370.256,4187.821,4216.282,4433.333
1783984336.484,16:12:16.484,86,false,0.0,4294.744,4384.744,4195.769,4204.231,4362.051
1783984336.4918,16:12:16.491,87,false,0.0,4280.641,4404.615,4235.128,4197.821,4270.897
1783984336.4997,16:12:16.499,88,false,0.0,4214.744,4361.026,4253.333,4188.974,4281.154
1783984336.5076,16:12:16.507,89,false,0.0,4200.513,4316.026,4260.385,4181.923,4253.974
1783984336.5154,16:12:16.515,90,false,0.0,4197.308,4290.897,4281.026,4175.385,4179.359
1783984336.5232,16:12:16.523,91,false,0.0,4131.923,4241.538,4276.026,4202.308,4225.897
1783984336.5311,16:12:16.531,92,false,0.0,4111.154,4203.462,4253.718,4243.846,4278.718
1783984336.5389,16:12:16.538,93,false,0.0,4195.0,4233.205,4266.923,4245.513,4164.359
1783984336.5467,16:12:16.546,94,false,0.0,4236.923,4295.256,4281.282,4242.051,4092.179
1783984336.5545,16:12:16.554,95,false,0.0,4176.538,4325.385,4246.41,4256.923,4226.41
1783984336.5624,16:12:16.562,96,false,0.0,4170.0,4335.256,4209.359,4247.821,4336.667
1783984336.5702,16:12:16.570,97,false,0.0,4271.282,4380.769,4214.359,4243.462,4282.436
1783984336.578,16:12:16.578,98,false,0.0,4327.821,4433.205,4222.949,4274.872,4251.154
1783984336.5859,16:12:16.585,99,false,0.0,4288.333,4420.128,4206.538,4281.538,4343.462
1783984336.5938,16:12:16.593,100,false,0.0,4271.282,4380.769,4195.256,4247.949,4408.846
1783984336.6016,16:12:16.601,101,false,0.0,4303.846,4386.282,4210.0,4214.487,4353.59
1783984336.6094,16:12:16.609,102,false,0.0,4301.795,4398.846,4232.949,4189.487,4286.538
1783984336.6172,16:12:16.617,103,false,0.0,4263.333,4375.256,4246.41,4187.949,4286.154
1783984336.6251,16:12:16.625,104,false,0.0,4245.641,4340.385,4257.692,4197.821,4263.718
1783984336.6329,16:12:16.632,105,false,0.0,4221.41,4311.282,4270.897,4176.667,4202.179
1783984336.6407,16:12:16.640,106,false,0.0,4154.231,4279.359,4263.462,4172.308,4227.308
1783984336.6485,16:12:16.648,107,false,0.0,4127.692,4244.359,4242.436,4216.154,4271.538
1783984336.6562,16:12:16.656,108,false,0.0,4192.564,4241.282,4259.103,4223.077,4155.641
1783984336.6641,16:12:16.664,109,false,0.0,4218.333,4290.0,4291.282,4205.256,4053.718
1783984336.6719,16:12:16.671,110,false,0.0,4142.179,4317.821,4264.487,4247.051,4194.487
1783984336.6797,16:12:16.679,111,false,0.0,4115.256,4294.359,4219.872,4287.179,4347.821
1783984336.6874,16:12:16.687,112,false,0.0,4192.436,4315.256,4226.923,4277.308,4311.41
1783984336.6952,16:12:16.695,113,false,0.0,4252.564,4375.385,4227.436,4279.487,4286.538
1783984336.703,16:12:16.703,114,false,0.0,4278.846,4393.205,4193.205,4270.0,4333.462
1783984336.7108,16:12:16.710,115,false,0.0,4319.615,4416.923,4199.487,4225.641,4314.615
1783984336.7185,16:12:16.718,116,false,0.0,4332.051,4450.128,4238.333,4223.974,4317.051
1783984336.7263,16:12:16.726,117,false,0.0,4312.821,4411.923,4242.949,4241.538,4386.282
1783984336.7341,16:12:16.734,118,false,0.0,4297.436,4365.256,4228.59,4221.026,4378.59
1783984336.742,16:12:16.742,119,false,0.0,4259.872,4352.821,4223.718,4222.308,4336.026
1783984336.7497,16:12:16.749,120,false,0.0,4221.026,4312.436,4231.795,4226.923,4323.462
1783984336.7575,16:12:16.757,121,false,0.0,4205.0,4303.718,4260.513,4174.487,4251.538
1783984336.7653,16:12:16.765,122,false,0.0,4144.487,4323.846,4269.359,4175.513,4219.103
1783984336.7731,16:12:16.773,123,false,0.0,4080.897,4246.795,4235.513,4264.487,4296.282
1783984336.7808,16:12:16.780,124,false,0.0,4121.154,4196.41,4233.846,4275.0,4249.744
1783984336.7886,16:12:16.788,125,false,0.0,4176.667,4302.051,4277.308,4206.026,4100.769
1783984336.7964,16:12:16.796,126,false,0.0,4158.59,4362.179,4278.846,4216.282,4134.744
1783984336.8042,16:12:16.804,127,false,0.0,4152.564,4309.103,4240.0,4268.333,4264.359
1783984336.8119,16:12:16.811,0,false,0.0,4186.154,4317.564,4222.692,4251.026,4275.0
1783984336.8198,16:12:16.819,1,false,0.0,4221.795,4374.744,4217.949,4235.256,4241.538
1783984336.8276,16:12:16.827,2,false,0.0,4263.974,4396.41,4216.026,4270.385,4250.513
1783984336.8354,16:12:16.835,3,false,0.0,4271.026,4406.667,4231.795,4271.41,4318.205
1783984336.8431,16:12:16.843,4,false,0.0,4255.897,4390.128,4238.205,4240.641,4422.949
1783984336.8509,16:12:16.850,5,false,0.0,4295.897,4372.564,4227.949,4231.538,4406.667
1783984336.8587,16:12:16.858,6,false,0.0,4304.359,4402.564,4230.513,4204.872,4297.436
1783984336.8665,16:12:16.866,7,false,0.0,4220.641,4393.846,4234.359,4183.333,4304.231
1783984336.8742,16:12:16.874,8,false,0.0,4178.333,4334.103,4230.385,4217.564,4318.205
1783984336.882,16:12:16.882,9,false,0.0,4187.436,4320.385,4245.128,4218.333,4199.487
1783984336.8898,16:12:16.889,10,false,0.0,4168.974,4315.641,4261.795,4175.897,4129.103
1783984336.8977,16:12:16.897,11,false,0.0,4170.513,4282.821,4252.564,4197.436,4157.821
1783984336.9056,16:12:16.905,12,false,0.0,4161.923,4282.436,4243.718,4230.641,4188.718
1783984336.9134,16:12:16.913,13,false,0.0,4111.282,4295.641,4252.692,4225.897,4236.538
1783984336.9212,16:12:16.921,14,false,0.0,4152.821,4307.564,4264.231,4263.333,4206.667
1783984336.929,16:12:16.929,15,false,0.0,4234.487,4350.128,4267.179,4292.051,4119.744
1783984336.9369,16:12:16.936,16,false,0.0,4201.41,4362.051,4247.308,4269.231,4246.923
1783984336.9447,16:12:16.944,17,false,0.0,4199.487,4339.872,4218.462,4294.615,4434.615
1783984336.9525,16:12:16.952,18,false,0.0,4305.513,4382.179,4226.026,4305.641,4353.718
1783984336.9603,16:12:16.960,19,false,0.0,4326.41,4439.872,4251.795,4234.615,4271.41
1783984336.9683,16:12:16.968,20,false,0.0,4274.744,4427.821,4241.026,4227.436,4386.923
1783984336.9761,16:12:16.976,21,false,0.0,4283.974,4414.872,4217.564,4256.795,4386.282
1783984336.9839,16:12:16.983,22,false,0.0,4279.359,4426.667,4223.205,4194.872,4268.077
1783984336.9917,16:12:16.991,23,false,0.0,4227.564,4401.282,4232.308,4171.795,4290.0
1783984336.9996,16:12:16.999,24,false,0.0,4198.974,4350.256,4224.359,4232.436,4334.103
1783984337.0074,16:12:17.007,25,false,0.0,4169.872,4301.923,4225.385,4231.026,4278.718
1783984337.0152,16:12:17.015,26,false,0.0,4143.462,4267.692,4243.462,4199.487,4226.026
1783984337.023,16:12:17.023,27,false,0.0,4156.154,4290.256,4262.179,4202.564,4172.436
1783984337.0309,16:12:17.030,28,false,0.0,4147.179,4331.154,4269.487,4204.231,4152.436
1783984337.0387,16:12:17.038,29,false,0.0,4116.667,4298.077,4257.692,4244.872,4245.385
1783984337.0466,16:12:17.046,30,false,0.0,4149.487,4257.051,4242.051,4283.974,4277.949
1783984337.0544,16:12:17.054,31,false,0.0,4220.897,4320.0,4251.923,4230.513,4171.282
1783984337.0623,16:12:17.062,32,false,0.0,4250.385,4401.282,4267.564,4212.949,4168.077
1783984337.0701,16:12:17.070,33,false,0.0,4237.692,4387.051,4253.333,4288.205,4313.718
1783984337.0779,16:12:17.077,34,false,0.0,4234.359,4360.513,4236.026,4294.615,4380.769
1783984337.0857,16:12:17.085,35,false,0.0,4271.41,4409.103,4241.41,4235.256,4333.846
1783984337.0936,16:12:17.093,36,false,0.0,4294.615,4442.179,4233.205,4217.179,4320.641
1783984337.1014,16:12:17.101,37,false,0.0,4252.821,4388.462,4200.897,4212.436,4373.333
